Ah_balance (normalized)	Ah_balance (mAh)	Voltage - fit (V)	Voltage -  interpolate (V)	dQ/dV (1/V)	Temperature (°C)	Temperature - diff (°C)	Current (C)	R_DC 0ms (mOhm)	R_DC 50ms (mOhm)	R_DC 50 ms PEC (mOhm)
0.0002	11.12	4.1850	4.1848	-0.3172	24.96	0.00	-0.050			
0.0005	32.40	4.1840	4.1837	-0.3493	24.96	0.00	-0.050			
0.0009	55.70	4.1830	4.1828	-0.3760	24.96	0.00	-0.050			
0.0013	81.80	4.1820	4.1817	-0.4074	24.96	0.00	-0.050			
0.0017	109.02	4.1810	4.1811	-0.4290	24.96	0.00	-0.050			
0.0022	138.18	4.1800	4.1799	-0.4495	24.96	0.00	-0.050			
0.0026	168.97	4.1790	4.1790	-0.4670	24.96	0.00	-0.050			
0.0031	199.97	4.1780	4.1778	-0.4810	24.97	0.01	-0.050			
0.0036	231.14	4.1770	4.1770	-0.4943	24.96	0.00	-0.050			
0.0041	263.90	4.1760	4.1761	-0.5065	24.96	0.00	-0.050			
0.0046	297.01	4.1750	4.1752	-0.5182	24.97	0.01	-0.050			
0.0052	331.27	4.1740	4.1741	-0.5281	24.97	0.01	-0.050			
0.0057	366.04	4.1730	4.1733	-0.5369	24.97	0.01	-0.050			
0.0063	403.55	4.1720	4.1720	-0.5514	24.97	0.01	-0.050			
0.0069	439.31	4.1710	4.1709	-0.5601	24.97	0.01	-0.050			
0.0074	476.28	4.1700	4.1701	-0.5663	24.97	0.01	-0.050			
0.0080	512.72	4.1690	4.1689	-0.5724	24.97	0.01	-0.050			
0.0086	550.12	4.1680	4.1679	-0.5794	24.97	0.01	-0.050			
0.0092	587.35	4.1670	4.1670	-0.5848	24.97	0.01	-0.050			
0.0098	625.72	4.1660	4.1661	-0.5883	24.96	0.00	-0.050			
0.0104	663.51	4.1650	4.1649	-0.5928	24.96	0.00	-0.050			
0.0110	701.46	4.1640	4.1640	-0.5998	24.96	-0.00	-0.050			
0.0116	739.83	4.1630	4.1630	-0.6042	24.95	-0.01	-0.050			
0.0122	779.14	4.1620	4.1618	-0.6080	24.95	-0.01	-0.050			
0.0128	818.26	4.1610	4.1610	-0.6147	24.94	-0.02	-0.050			
0.0134	858.13	4.1600	4.1602	-0.6173	24.94	-0.02	-0.050			
0.0140	897.87	4.1590	4.1590	-0.6228	24.94	-0.02	-0.050			
0.0147	938.22	4.1580	4.1580	-0.6259	24.95	-0.01	-0.050			
0.0153	978.56	4.1570	4.1569	-0.6269	24.95	-0.01	-0.050			
0.0159	1018.62	4.1560	4.1559	-0.6296	24.95	-0.01	-0.050			
0.0165	1059.05	4.1550	4.1548	-0.6349	24.95	-0.01	-0.050			
0.0172	1100.00	4.1540	4.1542	-0.6373	24.95	-0.01	-0.050			
0.0178	1141.14	4.1530	4.1530	-0.6412	24.95	-0.01	-0.050			
0.0185	1182.20	4.1520	4.1521	-0.6440	24.95	-0.01	-0.050			
0.0191	1222.90	4.1510	4.1510	-0.6476	24.95	-0.01	-0.050			
0.0198	1264.59	4.1500	4.1502	-0.6515	24.95	-0.01	-0.050	-0.224	0.403	
0.0204	1306.04	4.1490	4.1487	-0.6564	24.95	-0.01	-0.050			
0.0211	1348.44	4.1480	4.1481	-0.6584	24.95	-0.01	-0.050			
0.0217	1391.06	4.1470	4.1470	-0.6609	24.95	-0.01	-0.050			
0.0224	1433.66	4.1460	4.1458	-0.6649	24.95	-0.01	-0.050			
0.0231	1476.69	4.1450	4.1450	-0.6666	24.96	-0.00	-0.050			
0.0237	1519.28	4.1440	4.1439	-0.6667	24.96	0.00	-0.050			
0.0244	1562.12	4.1430	4.1429	-0.6711	24.96	0.00	-0.050			
0.0251	1605.56	4.1420	4.1420	-0.6737	24.96	0.00	-0.050			
0.0258	1648.91	4.1410	4.1412	-0.6768	24.97	0.01	-0.050			
0.0264	1691.99	4.1400	4.1398	-0.6785	24.97	0.01	-0.050			
0.0271	1736.50	4.1390	4.1391	-0.6818	24.97	0.01	-0.050			
0.0278	1779.96	4.1380	4.1381	-0.6825	24.98	0.02	-0.050			
0.0285	1824.05	4.1370	4.1369	-0.6858	24.98	0.02	-0.050			
0.0292	1868.17	4.1360	4.1360	-0.6865	24.99	0.03	-0.050			
0.0299	1911.36	4.1350	4.1351	-0.6876	24.99	0.03	-0.050			
0.0305	1954.85	4.1340	4.1340	-0.6904	24.98	0.02	-0.050			
0.0312	1998.64	4.1330	4.1332	-0.6957	24.99	0.03	-0.050			
0.0319	2042.73	4.1320	4.1319	-0.6978	24.99	0.03	-0.050			
0.0326	2086.96	4.1310	4.1310	-0.6985	24.99	0.03	-0.050			
0.0333	2132.52	4.1300	4.1301	-0.7007	24.99	0.03	-0.050			
0.0340	2178.11	4.1290	4.1291	-0.7030	24.99	0.03	-0.050			
0.0347	2223.60	4.1280	4.1278	-0.7057	24.99	0.03	-0.050			
0.0355	2269.38	4.1270	4.1271	-0.7096	24.99	0.03	-0.050			
0.0362	2314.86	4.1260	4.1258	-0.7116	24.98	0.02	-0.050			
0.0369	2360.01	4.1250	4.1248	-0.7143	24.98	0.02	-0.050			
0.0376	2406.30	4.1240	4.1240	-0.7171	24.98	0.02	-0.050			
0.0383	2453.07	4.1230	4.1230	-0.7155	24.98	0.02	-0.050			
0.0390	2498.83	4.1220	4.1220	-0.7154	24.98	0.02	-0.050			
0.0398	2544.95	4.1210	4.1210	-0.7178	24.98	0.02	-0.050	0.263	0.501	
0.0405	2590.89	4.1200	4.1195	-0.7182	24.98	0.02	-0.050			
0.0412	2636.99	4.1190	4.1189	-0.7220	24.97	0.01	-0.050			
0.0419	2683.58	4.1180	4.1177	-0.7211	24.97	0.01	-0.050			
0.0427	2729.71	4.1170	4.1171	-0.7215	24.98	0.02	-0.050			
0.0434	2775.09	4.1160	4.1160	-0.7224	24.97	0.01	-0.050			
0.0441	2821.58	4.1150	4.1150	-0.7227	24.97	0.01	-0.050			
0.0448	2866.96	4.1140	4.1144	-0.7234	24.97	0.01	-0.050			
0.0455	2912.96	4.1130	4.1129	-0.7248	24.97	0.01	-0.050			
0.0462	2959.88	4.1120	4.1117	-0.7273	24.96	-0.00	-0.050			
0.0470	3006.52	4.1110	4.1111	-0.7306	24.95	-0.01	-0.050			
0.0477	3053.33	4.1100	4.1100	-0.7343	24.95	-0.01	-0.050			
0.0484	3100.40	4.1090	4.1093	-0.7363	24.95	-0.01	-0.050			
0.0492	3147.74	4.1080	4.1078	-0.7354	24.94	-0.02	-0.050			
0.0499	3194.53	4.1070	4.1069	-0.7366	24.94	-0.02	-0.050			
0.0507	3241.80	4.1060	4.1061	-0.7371	24.94	-0.02	-0.050			
0.0514	3289.44	4.1050	4.1049	-0.7390	24.94	-0.02	-0.050			
0.0521	3337.23	4.1040	4.1042	-0.7383	24.94	-0.02	-0.050			
0.0529	3385.18	4.1030	4.1030	-0.7421	24.94	-0.02	-0.050			
0.0536	3432.81	4.1020	4.1021	-0.7443	24.93	-0.03	-0.050			
0.0544	3479.65	4.1010	4.1011	-0.7434	24.93	-0.03	-0.050			
0.0551	3527.02	4.1000	4.1002	-0.7440	24.93	-0.03	-0.050			
0.0558	3574.32	4.0990	4.0988	-0.7461	24.92	-0.04	-0.050			
0.0566	3622.57	4.0980	4.0978	-0.7510	24.92	-0.04	-0.050			
0.0574	3670.47	4.0970	4.0970	-0.7523	24.92	-0.04	-0.050			
0.0581	3718.48	4.0960	4.0961	-0.7513	24.92	-0.04	-0.050			
0.0589	3766.79	4.0950	4.0950	-0.7511	24.92	-0.04	-0.050			
0.0596	3815.16	4.0940	4.0937	-0.7510	24.92	-0.04	-0.050			
0.0604	3862.93	4.0930	4.0932	-0.7542	24.93	-0.03	-0.050			
0.0611	3910.94	4.0920	4.0919	-0.7566	24.92	-0.04	-0.050			
0.0619	3959.53	4.0910	4.0909	-0.7580	24.92	-0.04	-0.050			
0.0626	4008.46	4.0900	4.0900	-0.7582	24.92	-0.04	-0.050			
0.0634	4057.67	4.0890	4.0891	-0.7577	24.93	-0.03	-0.050			
0.0642	4106.79	4.0880	4.0879	-0.7626	24.93	-0.03	-0.050			
0.0649	4155.94	4.0870	4.0873	-0.7612	24.93	-0.03	-0.050			
0.0657	4205.09	4.0860	4.0859	-0.7602	24.94	-0.02	-0.050			
0.0665	4253.73	4.0850	4.0848	-0.7621	24.94	-0.02	-0.050			
0.0672	4302.38	4.0840	4.0839	-0.7618	24.94	-0.02	-0.050			
0.0680	4350.17	4.0830	4.0833	-0.7614	24.95	-0.01	-0.050			
0.0687	4399.38	4.0820	4.0822	-0.7624	24.95	-0.01	-0.050			
0.0695	4447.53	4.0810	4.0809	-0.7629	24.95	-0.01	-0.050			
0.0703	4496.37	4.0800	4.0802	-0.7638	24.95	-0.01	-0.050			
0.0710	4544.64	4.0790	4.0788	-0.7643	24.96	0.00	-0.050			
0.0718	4594.35	4.0780	4.0780	-0.7649	24.96	0.00	-0.050			
0.0725	4642.85	4.0770	4.0767	-0.7659	24.97	0.01	-0.050			
0.0733	4691.98	4.0760	4.0759	-0.7692	24.97	0.01	-0.050			
0.0741	4741.33	4.0750	4.0750	-0.7713	24.97	0.01	-0.050			
0.0749	4791.04	4.0740	4.0740	-0.7699	24.97	0.01	-0.050			
0.0756	4839.54	4.0730	4.0730	-0.7682	24.97	0.01	-0.050			
0.0764	4889.02	4.0720	4.0719	-0.7718	24.98	0.02	-0.050			
0.0772	4938.43	4.0710	4.0710	-0.7728	24.98	0.02	-0.050			
0.0779	4988.40	4.0700	4.0700	-0.7757	24.98	0.02	-0.050			
0.0787	5037.58	4.0690	4.0691	-0.7808	24.97	0.01	-0.050			
0.0795	5087.75	4.0680	4.0678	-0.7810	24.98	0.02	-0.050			
0.0803	5137.13	4.0670	4.0671	-0.7817	24.98	0.02	-0.050	0.152	0.567	
0.0811	5187.90	4.0660	4.0662	-0.7860	24.98	0.02	-0.050			
0.0818	5237.86	4.0650	4.0652	-0.7842	24.98	0.02	-0.050			
0.0826	5288.73	4.0640	4.0639	-0.7854	24.98	0.02	-0.050			
0.0834	5338.80	4.0630	4.0630	-0.7873	24.97	0.01	-0.050			
0.0842	5390.19	4.0620	4.0618	-0.7845	24.97	0.01	-0.050			
0.0850	5440.69	4.0610	4.0610	-0.7867	24.97	0.01	-0.050			
0.0858	5491.23	4.0600	4.0600	-0.7885	24.97	0.01	-0.050			
0.0866	5541.81	4.0590	4.0591	-0.7890	24.97	0.01	-0.050			
0.0874	5592.59	4.0580	4.0583	-0.7885	24.97	0.01	-0.050			
0.0882	5643.02	4.0570	4.0572	-0.7887	24.97	0.01	-0.050			
0.0890	5693.08	4.0560	4.0563	-0.7875	24.96	0.00	-0.050			
0.0898	5744.17	4.0550	4.0551	-0.7878	24.96	0.00	-0.050			
0.0905	5794.51	4.0540	4.0538	-0.7902	24.96	0.00	-0.050			
0.0913	5845.07	4.0530	4.0532	-0.7917	24.95	-0.01	-0.050			
0.0921	5895.21	4.0520	4.0518	-0.7877	24.95	-0.01	-0.050			
0.0929	5944.71	4.0510	4.0511	-0.7887	24.95	-0.01	-0.050			
0.0937	5994.55	4.0500	4.0503	-0.7923	24.95	-0.01	-0.050			
0.0944	6044.06	4.0490	4.0490	-0.7932	24.94	-0.02	-0.050			
0.0952	6094.92	4.0480	4.0479	-0.7959	24.94	-0.02	-0.050			
0.0960	6146.63	4.0470	4.0470	-0.7998	24.94	-0.02	-0.050			
0.0968	6197.90	4.0460	4.0459	-0.8006	24.94	-0.02	-0.050			
0.0976	6249.57	4.0450	4.0449	-0.8043	24.94	-0.02	-0.050			
0.0985	6302.24	4.0440	4.0440	-0.8050	24.93	-0.03	-0.050			
0.0993	6353.65	4.0430	4.0430	-0.8068	24.94	-0.02	-0.050			
0.1001	6405.21	4.0420	4.0418	-0.8083	24.93	-0.03	-0.050			
0.1009	6457.09	4.0410	4.0409	-0.8083	24.93	-0.03	-0.050			
0.1017	6509.23	4.0400	4.0399	-0.8090	24.93	-0.03	-0.050			
0.1025	6561.42	4.0390	4.0388	-0.8099	24.92	-0.04	-0.050			
0.1033	6613.83	4.0380	4.0382	-0.8108	24.91	-0.05	-0.050			
0.1042	6665.65	4.0370	4.0371	-0.8126	24.90	-0.06	-0.050			
0.1050	6717.56	4.0360	4.0358	-0.8135	24.90	-0.06	-0.050			
0.1058	6770.11	4.0350	4.0351	-0.8128	24.90	-0.06	-0.050			
0.1066	6821.71	4.0340	4.0340	-0.8121	24.89	-0.07	-0.050			
0.1074	6873.37	4.0330	4.0328	-0.8137	24.89	-0.07	-0.050			
0.1082	6925.30	4.0320	4.0321	-0.8147	24.90	-0.06	-0.050			
0.1090	6976.99	4.0310	4.0311	-0.8122	24.90	-0.06	-0.050			
0.1098	7029.07	4.0300	4.0299	-0.8117	24.89	-0.07	-0.050			
0.1106	7080.44	4.0290	4.0291	-0.8133	24.89	-0.07	-0.050			
0.1114	7132.79	4.0280	4.0280	-0.8175	24.90	-0.06	-0.050			
0.1123	7185.04	4.0270	4.0270	-0.8212	24.90	-0.06	-0.050			
0.1131	7237.36	4.0260	4.0261	-0.8243	24.90	-0.06	-0.050			
0.1139	7290.36	4.0250	4.0249	-0.8260	24.90	-0.06	-0.050			
0.1147	7343.68	4.0240	4.0240	-0.8268	24.90	-0.06	-0.050			
0.1156	7396.45	4.0230	4.0230	-0.8286	24.90	-0.06	-0.050			
0.1164	7449.27	4.0220	4.0221	-0.8293	24.90	-0.06	-0.050			
0.1172	7502.88	4.0210	4.0207	-0.8311	24.90	-0.06	-0.050			
0.1181	7556.54	4.0200	4.0197	-0.8333	24.90	-0.06	-0.050			
0.1189	7609.79	4.0190	4.0191	-0.8342	24.91	-0.05	-0.050			
0.1197	7663.67	4.0180	4.0179	-0.8349	24.92	-0.04	-0.050	0.378	0.546	
0.1206	7717.40	4.0170	4.0170	-0.8342	24.92	-0.04	-0.050			
0.1214	7771.05	4.0160	4.0161	-0.8349	24.93	-0.03	-0.050			
0.1223	7824.70	4.0150	4.0150	-0.8364	24.94	-0.02	-0.050			
0.1231	7879.20	4.0140	4.0139	-0.8340	24.93	-0.03	-0.050			
0.1239	7932.36	4.0130	4.0131	-0.8348	24.94	-0.02	-0.050			
0.1248	7985.84	4.0120	4.0121	-0.8329	24.94	-0.02	-0.050			
0.1256	8038.98	4.0110	4.0109	-0.8356	24.95	-0.01	-0.050			
0.1264	8092.05	4.0100	4.0101	-0.8356	24.94	-0.02	-0.050			
0.1273	8145.22	4.0090	4.0091	-0.8343	24.94	-0.02	-0.050			
0.1281	8197.74	4.0080	4.0080	-0.8341	24.95	-0.01	-0.050			
0.1289	8251.09	4.0070	4.0070	-0.8333	24.95	-0.01	-0.050			
0.1298	8304.64	4.0060	4.0060	-0.8347	24.96	-0.00	-0.050			
0.1306	8358.34	4.0050	4.0052	-0.8368	24.97	0.01	-0.050			
0.1314	8411.57	4.0040	4.0039	-0.8394	24.97	0.01	-0.050			
0.1323	8464.66	4.0030	4.0030	-0.8396	24.97	0.01	-0.050			
0.1331	8518.72	4.0020	4.0019	-0.8403	24.98	0.02	-0.050			
0.1340	8572.96	4.0010	4.0013	-0.8410	24.98	0.02	-0.050			
0.1348	8626.31	4.0000	4.0000	-0.8435	24.98	0.02	-0.050			
0.1356	8680.87	3.9990	3.9989	-0.8442	24.99	0.03	-0.050			
0.1365	8735.64	3.9980	3.9980	-0.8437	24.99	0.03	-0.050			
0.1373	8789.31	3.9970	3.9969	-0.8474	24.99	0.03	-0.050			
0.1382	8843.85	3.9960	3.9960	-0.8487	24.99	0.03	-0.050			
0.1390	8898.04	3.9950	3.9948	-0.8490	24.99	0.03	-0.050			
0.1399	8952.96	3.9940	3.9940	-0.8508	24.99	0.03	-0.050	0.332	0.574	
0.1407	9007.23	3.9930	3.9931	-0.8498	24.99	0.03	-0.050			
0.1416	9060.39	3.9920	3.9919	-0.8523	24.99	0.03	-0.050			
0.1424	9114.85	3.9910	3.9910	-0.8529	24.99	0.03	-0.050			
0.1433	9169.74	3.9900	3.9902	-0.8557	24.99	0.03	-0.050			
0.1441	9224.69	3.9890	3.9888	-0.8576	24.99	0.03	-0.050			
0.1450	9279.57	3.9880	3.9879	-0.8595	24.98	0.02	-0.050			
0.1459	9334.52	3.9870	3.9872	-0.8611	24.99	0.03	-0.050			
0.1467	9389.93	3.9860	3.9861	-0.8612	24.99	0.03	-0.050			
0.1476	9445.12	3.9850	3.9850	-0.8643	24.98	0.02	-0.050			
0.1485	9500.80	3.9840	3.9839	-0.8630	24.98	0.02	-0.050			
0.1493	9556.44	3.9830	3.9828	-0.8656	24.97	0.01	-0.050			
0.1502	9612.15	3.9820	3.9821	-0.8673	24.98	0.02	-0.050			
0.1511	9667.80	3.9810	3.9811	-0.8691	24.98	0.02	-0.050			
0.1519	9722.77	3.9800	3.9804	-0.8701	24.97	0.01	-0.050			
0.1528	9778.76	3.9790	3.9789	-0.8726	24.96	0.00	-0.050			
0.1537	9834.60	3.9780	3.9780	-0.8748	24.96	0.00	-0.050			
0.1545	9890.96	3.9770	3.9771	-0.8734	24.96	0.00	-0.050			
0.1554	9946.67	3.9760	3.9759	-0.8722	24.95	-0.01	-0.050			
0.1563	10003.19	3.9750	3.9753	-0.8756	24.94	-0.02	-0.050			
0.1572	10058.17	3.9740	3.9737	-0.8771	24.93	-0.03	-0.050			
0.1580	10114.61	3.9730	3.9730	-0.8791	24.94	-0.02	-0.050			
0.1589	10169.80	3.9720	3.9721	-0.8802	24.93	-0.03	-0.050			
0.1598	10226.51	3.9710	3.9710	-0.8827	24.93	-0.03	-0.050	0.475	0.581	
0.1607	10283.61	3.9700	3.9698	-0.8840	24.92	-0.04	-0.050			
0.1616	10340.22	3.9690	3.9691	-0.8874	24.91	-0.05	-0.050			
0.1625	10396.97	3.9680	3.9681	-0.8886	24.91	-0.05	-0.050			
0.1633	10454.01	3.9670	3.9668	-0.8914	24.91	-0.05	-0.050			
0.1642	10511.73	3.9660	3.9659	-0.8917	24.91	-0.05	-0.050			
0.1651	10569.47	3.9650	3.9649	-0.8907	24.91	-0.05	-0.050			
0.1660	10626.82	3.9640	3.9639	-0.8932	24.91	-0.05	-0.050			
0.1669	10683.68	3.9630	3.9631	-0.8933	24.90	-0.06	-0.050			
0.1678	10740.66	3.9620	3.9619	-0.8948	24.90	-0.06	-0.050			
0.1687	10797.94	3.9610	3.9611	-0.8955	24.90	-0.06	-0.050			
0.1696	10856.04	3.9600	3.9601	-0.8932	24.90	-0.06	-0.050			
0.1705	10913.32	3.9590	3.9591	-0.8949	24.89	-0.07	-0.050			
0.1714	10971.21	3.9580	3.9580	-0.8944	24.89	-0.07	-0.050			
0.1723	11028.58	3.9570	3.9571	-0.8933	24.90	-0.06	-0.050			
0.1732	11085.62	3.9560	3.9559	-0.8930	24.89	-0.07	-0.050			
0.1741	11142.07	3.9550	3.9550	-0.8934	24.90	-0.06	-0.050			
0.1750	11197.67	3.9540	3.9541	-0.8952	24.89	-0.07	-0.050			
0.1758	11254.35	3.9530	3.9531	-0.8991	24.89	-0.07	-0.050			
0.1767	11311.72	3.9520	3.9524	-0.9000	24.90	-0.06	-0.050			
0.1776	11369.08	3.9510	3.9511	-0.9014	24.90	-0.06	-0.050			
0.1786	11427.70	3.9500	3.9498	-0.9026	24.89	-0.07	-0.050			
0.1795	11485.41	3.9490	3.9491	-0.9057	24.90	-0.06	-0.050			
0.1804	11543.37	3.9480	3.9479	-0.9057	24.90	-0.06	-0.050			
0.1813	11602.35	3.9470	3.9469	-0.9064	24.90	-0.06	-0.050			
0.1822	11660.79	3.9460	3.9460	-0.9077	24.91	-0.05	-0.050			
0.1831	11719.77	3.9450	3.9448	-0.9077	24.91	-0.05	-0.050			
0.1840	11778.32	3.9440	3.9441	-0.9068	24.91	-0.05	-0.050			
0.1849	11835.84	3.9430	3.9433	-0.9083	24.91	-0.05	-0.050			
0.1858	11894.35	3.9420	3.9421	-0.9083	24.92	-0.04	-0.050			
0.1868	11953.01	3.9410	3.9412	-0.9076	24.92	-0.04	-0.050			
0.1877	12011.57	3.9400	3.9398	-0.9086	24.92	-0.04	-0.050			
0.1886	12069.53	3.9390	3.9389	-0.9074	24.92	-0.04	-0.050			
0.1895	12128.28	3.9380	3.9380	-0.9061	24.92	-0.04	-0.050			
0.1904	12185.89	3.9370	3.9371	-0.9042	24.93	-0.03	-0.050			
0.1913	12243.58	3.9360	3.9359	-0.8981	24.94	-0.02	-0.050			
0.1922	12298.87	3.9350	3.9349	-0.9031	24.94	-0.02	-0.050			
0.1931	12355.22	3.9340	3.9339	-0.9032	24.95	-0.01	-0.050			
0.1940	12412.82	3.9330	3.9330	-0.9063	24.95	-0.01	-0.050			
0.1949	12470.65	3.9320	3.9324	-0.9104	24.96	0.00	-0.050			
0.1958	12529.65	3.9310	3.9309	-0.9126	24.96	0.00	-0.050			
0.1967	12588.56	3.9300	3.9300	-0.9146	24.96	0.00	-0.050			
0.1976	12646.54	3.9290	3.9292	-0.9166	24.98	0.02	-0.050			
0.1985	12705.66	3.9280	3.9279	-0.9175	24.98	0.02	-0.050			
0.1995	12765.36	3.9270	3.9270	-0.9212	24.98	0.02	-0.050			
0.2004	12824.48	3.9260	3.9258	-0.9229	24.98	0.02	-0.050	0.307	0.420	
0.2013	12883.94	3.9250	3.9252	-0.9244	24.99	0.03	-0.050			
0.2022	12943.81	3.9240	3.9239	-0.9252	25.00	0.04	-0.050			
0.2032	13002.95	3.9230	3.9231	-0.9241	24.99	0.03	-0.050			
0.2041	13062.63	3.9220	3.9222	-0.9250	24.99	0.03	-0.050			
0.2050	13122.79	3.9210	3.9210	-0.9259	24.99	0.03	-0.050			
0.2060	13182.42	3.9200	3.9199	-0.9249	24.98	0.02	-0.050			
0.2069	13241.50	3.9190	3.9191	-0.9249	24.97	0.01	-0.050			
0.2078	13301.10	3.9180	3.9180	-0.9263	24.95	-0.01	-0.050			
0.2087	13359.61	3.9170	3.9170	-0.9272	24.95	-0.01	-0.050			
0.2097	13418.22	3.9160	3.9162	-0.9256	24.93	-0.03	-0.050			
0.2106	13476.00	3.9150	3.9150	-0.9195	24.93	-0.03	-0.050			
0.2115	13535.15	3.9140	3.9140	-0.9229	24.93	-0.03	-0.050			
0.2124	13593.99	3.9130	3.9130	-0.9240	24.93	-0.03	-0.050			
0.2133	13653.04	3.9120	3.9120	-0.9262	24.93	-0.03	-0.050			
0.2143	13712.60	3.9110	3.9110	-0.9305	24.93	-0.03	-0.050			
0.2152	13771.66	3.9100	3.9099	-0.9311	24.92	-0.04	-0.050			
0.2161	13831.05	3.9090	3.9090	-0.9333	24.92	-0.04	-0.050			
0.2171	13891.35	3.9080	3.9081	-0.9347	24.93	-0.03	-0.050			
0.2180	13951.93	3.9070	3.9070	-0.9355	24.92	-0.04	-0.050			
0.2189	14012.16	3.9060	3.9060	-0.9349	24.93	-0.03	-0.050			
0.2199	14071.87	3.9050	3.9050	-0.9366	24.94	-0.02	-0.050	-0.206	0.446	
0.2208	14132.59	3.9040	3.9040	-0.9370	24.94	-0.02	-0.050			
0.2218	14192.41	3.9030	3.9029	-0.9388	24.94	-0.02	-0.050			
0.2227	14252.84	3.9020	3.9020	-0.9398	24.94	-0.02	-0.050			
0.2237	14313.76	3.9010	3.9010	-0.9392	24.95	-0.01	-0.050			
0.2246	14373.80	3.9000	3.9000	-0.9383	24.95	-0.01	-0.050			
0.2255	14433.79	3.8990	3.8991	-0.9357	24.94	-0.02	-0.050			
0.2265	14493.02	3.8980	3.8981	-0.9385	24.95	-0.01	-0.050			
0.2274	14552.63	3.8970	3.8968	-0.9390	24.94	-0.02	-0.050			
0.2283	14612.62	3.8960	3.8959	-0.9396	24.95	-0.01	-0.050			
0.2293	14673.06	3.8950	3.8950	-0.9414	24.95	-0.01	-0.050			
0.2302	14731.65	3.8940	3.8939	-0.9431	24.94	-0.02	-0.050			
0.2311	14791.67	3.8930	3.8931	-0.9459	24.95	-0.01	-0.050			
0.2321	14853.03	3.8920	3.8920	-0.9452	24.94	-0.02	-0.050			
0.2330	14912.98	3.8910	3.8908	-0.9478	24.95	-0.01	-0.050			
0.2340	14973.87	3.8900	3.8899	-0.9498	24.94	-0.02	-0.050			
0.2349	15035.07	3.8890	3.8889	-0.9528	24.94	-0.02	-0.050			
0.2359	15097.12	3.8880	3.8879	-0.9546	24.94	-0.02	-0.050			
0.2369	15158.96	3.8870	3.8870	-0.9555	24.93	-0.03	-0.050			
0.2378	15220.94	3.8860	3.8860	-0.9534	24.94	-0.02	-0.050			
0.2388	15282.35	3.8850	3.8848	-0.9488	24.93	-0.03	-0.050			
0.2397	15342.45	3.8840	3.8844	-0.9496	24.92	-0.04	-0.050	0.201	0.598	
0.2407	15403.69	3.8830	3.8832	-0.9498	24.92	-0.04	-0.050			
0.2416	15464.61	3.8820	3.8820	-0.9524	24.92	-0.04	-0.050			
0.2426	15526.04	3.8810	3.8811	-0.9526	24.92	-0.04	-0.050			
0.2435	15586.26	3.8800	3.8800	-0.9536	24.92	-0.04	-0.050			
0.2445	15646.21	3.8790	3.8790	-0.9542	24.93	-0.03	-0.050			
0.2454	15706.96	3.8780	3.8779	-0.9493	24.93	-0.03	-0.050			
0.2464	15768.29	3.8770	3.8769	-0.9470	24.92	-0.04	-0.050			
0.2473	15830.00	3.8760	3.8757	-0.9437	24.93	-0.03	-0.050			
0.2483	15890.07	3.8750	3.8749	-0.9422	24.94	-0.02	-0.050			
0.2492	15949.35	3.8740	3.8738	-0.9406	24.94	-0.02	-0.050			
0.2502	16010.74	3.8730	3.8729	-0.9424	24.94	-0.02	-0.050			
0.2511	16071.41	3.8720	3.8719	-0.9425	24.94	-0.02	-0.050			
0.2521	16131.39	3.8710	3.8711	-0.9425	24.94	-0.02	-0.050			
0.2530	16191.05	3.8700	3.8703	-0.9430	24.94	-0.02	-0.050			
0.2539	16251.48	3.8690	3.8692	-0.9448	24.94	-0.02	-0.050			
0.2549	16312.02	3.8680	3.8680	-0.9466	24.95	-0.01	-0.050			
0.2558	16372.12	3.8670	3.8668	-0.9466	24.95	-0.01	-0.050			
0.2568	16433.10	3.8660	3.8659	-0.9480	24.95	-0.01	-0.050			
0.2577	16492.52	3.8650	3.8650	-0.9493	24.96	0.00	-0.050			
0.2586	16552.19	3.8640	3.8641	-0.9457	24.96	0.00	-0.050			
0.2596	16612.68	3.8630	3.8632	-0.9456	24.97	0.01	-0.050			
0.2605	16673.52	3.8620	3.8619	-0.9461	24.97	0.01	-0.050	0.047	0.443	
0.2615	16734.73	3.8610	3.8611	-0.9480	24.97	0.01	-0.050			
0.2624	16795.19	3.8600	3.8599	-0.9493	24.98	0.02	-0.050			
0.2634	16857.81	3.8590	3.8591	-0.9503	24.98	0.02	-0.050			
0.2644	16919.19	3.8580	3.8580	-0.9548	24.98	0.02	-0.050			
0.2653	16981.21	3.8570	3.8570	-0.9566	24.97	0.01	-0.050			
0.2663	17042.47	3.8560	3.8559	-0.9544	24.98	0.02	-0.050			
0.2672	17103.17	3.8550	3.8551	-0.9533	24.98	0.02	-0.050			
0.2682	17163.99	3.8540	3.8538	-0.9500	24.98	0.02	-0.050			
0.2691	17224.97	3.8530	3.8530	-0.9496	24.98	0.02	-0.050			
0.2701	17286.12	3.8520	3.8519	-0.9489	24.99	0.03	-0.050			
0.2710	17345.68	3.8510	3.8510	-0.9457	24.98	0.02	-0.050			
0.2720	17405.88	3.8500	3.8501	-0.9466	24.98	0.02	-0.050			
0.2729	17466.24	3.8490	3.8489	-0.9453	24.97	0.01	-0.050			
0.2739	17526.74	3.8480	3.8481	-0.9451	24.97	0.01	-0.050			
0.2748	17586.53	3.8470	3.8471	-0.9462	24.97	0.01	-0.050			
0.2757	17647.00	3.8460	3.8460	-0.9469	24.97	0.01	-0.050			
0.2767	17707.55	3.8450	3.8451	-0.9454	24.98	0.02	-0.050			
0.2776	17768.94	3.8440	3.8438	-0.9453	24.96	-0.00	-0.050			
0.2786	17830.07	3.8430	3.8429	-0.9445	24.96	-0.00	-0.050			
0.2795	17891.13	3.8420	3.8419	-0.9424	24.95	-0.01	-0.050			
0.2805	17951.28	3.8410	3.8411	-0.9401	24.94	-0.02	-0.050	0.146	0.615	
0.2814	18011.54	3.8400	3.8401	-0.9410	24.95	-0.01	-0.050			
0.2824	18072.13	3.8390	3.8389	-0.9388	24.94	-0.02	-0.050			
0.2833	18131.32	3.8380	3.8380	-0.9355	24.93	-0.03	-0.050			
0.2842	18191.30	3.8370	3.8371	-0.9363	24.93	-0.03	-0.050			
0.2852	18251.31	3.8360	3.8360	-0.9362	24.93	-0.03	-0.050			
0.2861	18310.99	3.8350	3.8350	-0.9360	24.91	-0.05	-0.050			
0.2870	18370.88	3.8340	3.8338	-0.9352	24.90	-0.06	-0.050			
0.2880	18430.75	3.8330	3.8332	-0.9330	24.90	-0.06	-0.050			
0.2889	18490.26	3.8320	3.8318	-0.9318	24.90	-0.06	-0.050			
0.2898	18550.12	3.8310	3.8311	-0.9276	24.89	-0.07	-0.050			
0.2908	18609.04	3.8300	3.8301	-0.9254	24.89	-0.07	-0.050			
0.2917	18668.47	3.8290	3.8291	-0.9250	24.89	-0.07	-0.050			
0.2926	18727.65	3.8280	3.8280	-0.9236	24.89	-0.07	-0.050			
0.2935	18786.42	3.8270	3.8270	-0.9213	24.89	-0.07	-0.050			
0.2945	18846.20	3.8260	3.8261	-0.9208	24.89	-0.07	-0.050			
0.2954	18905.55	3.8250	3.8251	-0.9191	24.88	-0.08	-0.050			
0.2963	18964.55	3.8240	3.8240	-0.9146	24.88	-0.08	-0.050			
0.2972	19022.88	3.8230	3.8230	-0.9144	24.88	-0.08	-0.050			
0.2981	19081.49	3.8220	3.8221	-0.9140	24.88	-0.08	-0.050			
0.2991	19139.53	3.8210	3.8208	-0.9086	24.88	-0.08	-0.050			
0.3000	19197.05	3.8200	3.8202	-0.9061	24.88	-0.08	-0.050	0.273	0.436	
0.3009	19255.23	3.8190	3.8190	-0.9056	24.89	-0.07	-0.050			
0.3018	19312.60	3.8180	3.8180	-0.9049	24.89	-0.07	-0.050			
0.3027	19370.16	3.8170	3.8170	-0.9012	24.89	-0.07	-0.050			
0.3036	19427.72	3.8160	3.8159	-0.8983	24.88	-0.08	-0.050			
0.3045	19485.84	3.8150	3.8149	-0.8959	24.88	-0.08	-0.050			
0.3054	19543.14	3.8140	3.8138	-0.8940	24.89	-0.07	-0.050			
0.3063	19601.25	3.8130	3.8131	-0.8918	24.89	-0.07	-0.050			
0.3072	19658.98	3.8120	3.8120	-0.8860	24.89	-0.07	-0.050			
0.3081	19715.94	3.8110	3.8110	-0.8819	24.89	-0.07	-0.050			
0.3089	19771.93	3.8100	3.8102	-0.8788	24.89	-0.07	-0.050			
0.3098	19827.70	3.8090	3.8089	-0.8777	24.90	-0.06	-0.050			
0.3107	19883.92	3.8080	3.8081	-0.8749	24.90	-0.06	-0.050			
0.3116	19940.53	3.8070	3.8071	-0.8692	24.90	-0.06	-0.050			
0.3124	19996.57	3.8060	3.8059	-0.8657	24.90	-0.06	-0.050			
0.3133	20051.79	3.8050	3.8048	-0.8594	24.91	-0.05	-0.050			
0.3142	20107.15	3.8040	3.8042	-0.8535	24.91	-0.05	-0.050			
0.3150	20160.82	3.8030	3.8029	-0.8473	24.92	-0.04	-0.050			
0.3159	20214.80	3.8020	3.8017	-0.8441	24.93	-0.03	-0.050			
0.3167	20268.31	3.8010	3.8010	-0.8399	24.95	-0.01	-0.050			
0.3175	20321.92	3.8000	3.8000	-0.8366	24.96	0.00	-0.050			
0.3184	20375.04	3.7990	3.7993	-0.8303	24.96	0.00	-0.050			
0.3192	20428.11	3.7980	3.7981	-0.8245	24.98	0.02	-0.050			
0.3200	20481.21	3.7970	3.7970	-0.8223	24.99	0.03	-0.050	0.364	0.475	
0.3208	20533.96	3.7960	3.7963	-0.8194	24.99	0.03	-0.050			
0.3216	20585.57	3.7950	3.7949	-0.8170	25.01	0.05	-0.050			
0.3225	20637.09	3.7940	3.7938	-0.8131	25.01	0.05	-0.050			
0.3233	20688.70	3.7930	3.7929	-0.8119	25.02	0.06	-0.050			
0.3241	20741.10	3.7920	3.7921	-0.8086	25.03	0.07	-0.050			
0.3249	20791.78	3.7910	3.7910	-0.8023	25.02	0.06	-0.050			
0.3257	20842.83	3.7900	3.7901	-0.7987	25.03	0.07	-0.050			
0.3265	20893.50	3.7890	3.7888	-0.7954	25.03	0.07	-0.050			
0.3273	20944.92	3.7880	3.7879	-0.7964	25.04	0.08	-0.050			
0.3281	20996.06	3.7870	3.7869	-0.7947	25.04	0.08	-0.050			
0.3289	21046.89	3.7860	3.7860	-0.7919	25.04	0.08	-0.050			
0.3297	21098.44	3.7850	3.7851	-0.7914	25.04	0.08	-0.050			
0.3304	21148.20	3.7840	3.7839	-0.7898	25.05	0.09	-0.050			
0.3312	21198.49	3.7830	3.7832	-0.7873	25.05	0.09	-0.050			
0.3320	21248.81	3.7820	3.7819	-0.7837	25.05	0.09	-0.050			
0.3328	21298.86	3.7810	3.7809	-0.7845	25.05	0.09	-0.050			
0.3336	21348.69	3.7800	3.7801	-0.7832	25.05	0.09	-0.050			
0.3343	21397.97	3.7790	3.7790	-0.7868	25.04	0.08	-0.050			
0.3351	21448.30	3.7780	3.7780	-0.7859	25.04	0.08	-0.050			
0.3359	21499.07	3.7770	3.7771	-0.7826	25.04	0.08	-0.050			
0.3367	21548.83	3.7760	3.7760	-0.7806	25.04	0.08	-0.050			
0.3375	21599.34	3.7750	3.7747	-0.7771	25.04	0.08	-0.050			
0.3383	21649.63	3.7740	3.7742	-0.7776	25.03	0.07	-0.050			
0.3390	21698.82	3.7730	3.7729	-0.7780	25.03	0.07	-0.050			
0.3398	21748.67	3.7720	3.7720	-0.7785	25.03	0.07	-0.050			
0.3406	21799.05	3.7710	3.7710	-0.7793	25.03	0.07	-0.050	-0.209	0.318	
0.3414	21848.47	3.7700	3.7700	-0.7798	25.02	0.06	-0.050			
0.3422	21898.72	3.7690	3.7691	-0.7780	25.02	0.06	-0.050			
0.3429	21948.42	3.7680	3.7683	-0.7763	25.02	0.06	-0.050			
0.3437	21998.33	3.7670	3.7669	-0.7753	25.02	0.06	-0.050			
0.3445	22047.69	3.7660	3.7660	-0.7762	25.01	0.05	-0.050			
0.3453	22096.53	3.7650	3.7650	-0.7768	25.00	0.04	-0.050			
0.3460	22145.90	3.7640	3.7637	-0.7736	25.00	0.04	-0.050			
0.3468	22195.40	3.7630	3.7630	-0.7742	24.99	0.03	-0.050			
0.3476	22244.25	3.7620	3.7620	-0.7777	24.99	0.03	-0.050			
0.3483	22293.82	3.7610	3.7610	-0.7812	24.99	0.03	-0.050			
0.3491	22342.85	3.7600	3.7599	-0.7807	24.98	0.02	-0.050			
0.3499	22392.43	3.7590	3.7591	-0.7826	24.98	0.02	-0.050			
0.3507	22442.57	3.7580	3.7580	-0.7879	24.97	0.01	-0.050			
0.3515	22494.33	3.7570	3.7568	-0.7923	24.97	0.01	-0.050			
0.3523	22544.92	3.7560	3.7561	-0.7976	24.97	0.01	-0.050			
0.3531	22595.27	3.7550	3.7551	-0.7996	24.97	0.01	-0.050			
0.3538	22646.39	3.7540	3.7538	-0.8049	24.95	-0.01	-0.050			
0.3547	22697.97	3.7530	3.7528	-0.8056	24.95	-0.01	-0.050			
0.3555	22749.57	3.7520	3.7523	-0.8109	24.95	-0.01	-0.050			
0.3563	22801.43	3.7510	3.7509	-0.8173	24.94	-0.02	-0.050			
0.3571	22854.53	3.7500	3.7501	-0.8216	24.94	-0.02	-0.050			
0.3579	22907.55	3.7490	3.7491	-0.8247	24.93	-0.03	-0.050			
0.3588	22961.07	3.7480	3.7480	-0.8309	24.92	-0.04	-0.050			
0.3596	23014.54	3.7470	3.7468	-0.8329	24.92	-0.04	-0.050			
0.3604	23067.91	3.7460	3.7461	-0.8348	24.92	-0.04	-0.050	0.237	0.644	
0.3613	23121.50	3.7450	3.7449	-0.8402	24.91	-0.05	-0.050			
0.3621	23175.25	3.7440	3.7441	-0.8430	24.91	-0.05	-0.050			
0.3630	23228.90	3.7430	3.7428	-0.8518	24.90	-0.06	-0.050			
0.3638	23282.41	3.7420	3.7422	-0.8539	24.89	-0.07	-0.050			
0.3647	23337.69	3.7410	3.7411	-0.8598	24.88	-0.08	-0.050			
0.3655	23392.37	3.7400	3.7402	-0.8663	24.88	-0.08	-0.050			
0.3664	23447.44	3.7390	3.7390	-0.8732	24.88	-0.08	-0.050			
0.3672	23503.58	3.7380	3.7381	-0.8788	24.88	-0.08	-0.050			
0.3681	23559.78	3.7370	3.7369	-0.8843	24.88	-0.08	-0.050			
0.3690	23615.99	3.7360	3.7360	-0.8899	24.88	-0.08	-0.050			
0.3699	23674.01	3.7350	3.7351	-0.8962	24.88	-0.08	-0.050			
0.3708	23731.94	3.7340	3.7340	-0.9003	24.89	-0.07	-0.050			
0.3717	23789.48	3.7330	3.7331	-0.9100	24.88	-0.08	-0.050			
0.3726	23847.53	3.7320	3.7320	-0.9185	24.89	-0.07	-0.050			
0.3735	23905.93	3.7310	3.7311	-0.9256	24.89	-0.07	-0.050			
0.3745	23965.93	3.7300	3.7301	-0.9347	24.89	-0.07	-0.050			
0.3754	24026.12	3.7290	3.7290	-0.9435	24.89	-0.07	-0.050			
0.3764	24086.71	3.7280	3.7279	-0.9489	24.89	-0.07	-0.050			
0.3773	24147.43	3.7270	3.7270	-0.9579	24.89	-0.07	-0.050			
0.3783	24208.29	3.7260	3.7260	-0.9692	24.89	-0.07	-0.050			
0.3792	24269.07	3.7250	3.7249	-0.9777	24.90	-0.06	-0.050			
0.3802	24332.16	3.7240	3.7238	-0.9884	24.90	-0.06	-0.050	-0.252	0.478	
0.3812	24394.48	3.7230	3.7231	-0.9969	24.91	-0.05	-0.050			
0.3822	24459.50	3.7220	3.7221	-1.0061	24.90	-0.06	-0.050			
0.3832	24524.05	3.7210	3.7211	-1.0183	24.90	-0.06	-0.050			
0.3842	24590.27	3.7200	3.7200	-1.0291	24.90	-0.06	-0.050			
0.3852	24655.98	3.7190	3.7191	-1.0399	24.90	-0.06	-0.050			
0.3863	24722.78	3.7180	3.7178	-1.0547	24.90	-0.06	-0.050			
0.3874	24790.81	3.7170	3.7171	-1.0666	24.91	-0.05	-0.050			
0.3884	24858.67	3.7160	3.7159	-1.0804	24.91	-0.05	-0.050			
0.3895	24928.50	3.7150	3.7152	-1.0940	24.91	-0.05	-0.050			
0.3906	24998.90	3.7140	3.7139	-1.1037	24.91	-0.05	-0.050			
0.3917	25069.54	3.7130	3.7131	-1.1136	24.90	-0.06	-0.050			
0.3928	25141.48	3.7120	3.7118	-1.1271	24.90	-0.06	-0.050			
0.3940	25213.59	3.7110	3.7112	-1.1428	24.90	-0.06	-0.050			
0.3951	25288.04	3.7100	3.7100	-1.1546	24.91	-0.05	-0.050			
0.3963	25362.52	3.7090	3.7089	-1.1660	24.90	-0.06	-0.050			
0.3974	25436.52	3.7080	3.7078	-1.1814	24.90	-0.06	-0.050			
0.3986	25512.54	3.7070	3.7069	-1.1925	24.90	-0.06	-0.050			
0.3998	25589.20	3.7060	3.7061	-1.2043	24.89	-0.07	-0.050	0.331	0.423	
0.4010	25666.92	3.7050	3.7052	-1.2193	24.87	-0.09	-0.050			
0.4023	25745.51	3.7040	3.7040	-1.2335	24.87	-0.09	-0.050			
0.4035	25824.46	3.7030	3.7030	-1.2495	24.87	-0.09	-0.050			
0.4048	25905.37	3.7020	3.7021	-1.2632	24.87	-0.09	-0.050			
0.4060	25985.93	3.7010	3.7011	-1.2751	24.88	-0.08	-0.050			
0.4073	26068.53	3.7000	3.6995	-1.2876	24.88	-0.08	-0.050			
0.4086	26150.44	3.6990	3.6990	-1.3042	24.88	-0.08	-0.050			
0.4099	26232.04	3.6980	3.6982	-1.3227	24.88	-0.08	-0.050			
0.4112	26317.33	3.6970	3.6972	-1.3414	24.88	-0.08	-0.050			
0.4125	26402.73	3.6960	3.6960	-1.3596	24.89	-0.07	-0.050			
0.4139	26489.88	3.6950	3.6951	-1.3814	24.90	-0.06	-0.050			
0.4153	26579.40	3.6940	3.6943	-1.3991	24.90	-0.06	-0.050			
0.4167	26669.48	3.6930	3.6929	-1.4153	24.91	-0.05	-0.050			
0.4181	26760.77	3.6920	3.6918	-1.4323	24.92	-0.04	-0.050			
0.4196	26852.51	3.6910	3.6910	-1.4547	24.92	-0.04	-0.050			
0.4210	26946.70	3.6900	3.6898	-1.4763	24.92	-0.04	-0.050			
0.4225	27042.16	3.6890	3.6891	-1.4919	24.93	-0.03	-0.050			
0.4240	27138.32	3.6880	3.6880	-1.5121	24.93	-0.03	-0.050			
0.4256	27237.52	3.6870	3.6870	-1.5301	24.94	-0.02	-0.050			
0.4271	27336.30	3.6860	3.6860	-1.5480	24.94	-0.02	-0.050			
0.4287	27436.36	3.6850	3.6851	-1.5635	24.93	-0.03	-0.050			
0.4303	27537.13	3.6840	3.6839	-1.5794	24.92	-0.04	-0.050			
0.4319	27640.02	3.6830	3.6830	-1.5952	24.91	-0.05	-0.050			
0.4335	27743.57	3.6820	3.6818	-1.6120	24.91	-0.05	-0.050			
0.4351	27846.52	3.6810	3.6811	-1.6278	24.91	-0.05	-0.050			
0.4367	27950.59	3.6800	3.6800	-1.6430	24.91	-0.05	-0.050			
0.4383	28054.07	3.6790	3.6787	-1.6590	24.90	-0.06	-0.050			
0.4400	28159.37	3.6780	3.6780	-1.6738	24.90	-0.06	-0.050	-0.064	0.516	
0.4417	28268.26	3.6770	3.6768	-1.6948	24.91	-0.05	-0.050			
0.4434	28376.54	3.6760	3.6758	-1.7129	24.91	-0.05	-0.050			
0.4451	28485.47	3.6750	3.6751	-1.7355	24.91	-0.05	-0.050			
0.4468	28596.86	3.6740	3.6743	-1.7587	24.91	-0.05	-0.050			
0.4486	28708.90	3.6730	3.6729	-1.7791	24.91	-0.05	-0.050			
0.4504	28822.64	3.6720	3.6720	-1.8003	24.92	-0.04	-0.050			
0.4521	28937.58	3.6710	3.6714	-1.8238	24.91	-0.05	-0.050			
0.4540	29055.32	3.6700	3.6701	-1.8491	24.90	-0.06	-0.050			
0.4559	29175.00	3.6690	3.6691	-1.8707	24.90	-0.06	-0.050			
0.4577	29295.69	3.6680	3.6680	-1.8989	24.90	-0.06	-0.050			
0.4596	29417.05	3.6670	3.6667	-1.9283	24.89	-0.07	-0.050	0.338	0.580	
0.4616	29541.03	3.6660	3.6661	-1.9530	24.89	-0.07	-0.050			
0.4635	29666.97	3.6650	3.6648	-1.9812	24.89	-0.07	-0.050			
0.4655	29794.18	3.6640	3.6640	-2.0085	24.88	-0.08	-0.050			
0.4676	29923.72	3.6630	3.6633	-2.0389	24.88	-0.08	-0.050			
0.4696	30053.72	3.6620	3.6620	-2.0676	24.87	-0.09	-0.050			
0.4717	30186.44	3.6610	3.6609	-2.0958	24.87	-0.09	-0.050			
0.4738	30321.74	3.6600	3.6600	-2.1267	24.87	-0.09	-0.050			
0.4759	30458.90	3.6590	3.6590	-2.1570	24.86	-0.10	-0.050			
0.4781	30598.76	3.6580	3.6581	-2.1872	24.87	-0.09	-0.050			
0.4803	30741.56	3.6570	3.6572	-2.2141	24.87	-0.09	-0.050			
0.4825	30883.19	3.6560	3.6561	-2.2370	24.86	-0.10	-0.050			
0.4848	31027.65	3.6550	3.6548	-2.2659	24.87	-0.09	-0.050			
0.4871	31174.72	3.6540	3.6541	-2.2953	24.87	-0.09	-0.050			
0.4894	31322.25	3.6530	3.6530	-2.3225	24.87	-0.09	-0.050			
0.4918	31472.79	3.6520	3.6519	-2.3525	24.88	-0.08	-0.050			
0.4941	31624.14	3.6510	3.6509	-2.3756	24.89	-0.07	-0.050			
0.4965	31777.88	3.6500	3.6500	-2.4032	24.89	-0.07	-0.050			
0.4990	31933.45	3.6490	3.6489	-2.4241	24.91	-0.05	-0.050			
0.5014	32087.76	3.6480	3.6481	-2.4497	24.90	-0.06	-0.050	0.155	0.592	
0.5038	32245.26	3.6470	3.6468	-2.4762	24.92	-0.04	-0.050			
0.5063	32404.80	3.6460	3.6459	-2.5051	24.93	-0.03	-0.050			
0.5088	32563.97	3.6450	3.6450	-2.5305	24.93	-0.03	-0.050			
0.5114	32726.83	3.6440	3.6442	-2.5531	24.94	-0.02	-0.050			
0.5139	32890.42	3.6430	3.6432	-2.5804	24.95	-0.01	-0.050			
0.5165	33056.17	3.6420	3.6419	-2.6165	24.96	0.00	-0.050			
0.5191	33224.46	3.6410	3.6412	-2.6441	24.96	-0.00	-0.050			
0.5218	33394.83	3.6400	3.6400	-2.6747	24.96	0.00	-0.050			
0.5245	33568.40	3.6390	3.6391	-2.7077	24.95	-0.01	-0.050			
0.5272	33741.92	3.6380	3.6380	-2.7332	24.94	-0.02	-0.050			
0.5300	33916.88	3.6370	3.6369	-2.7619	24.93	-0.03	-0.050			
0.5327	34093.98	3.6360	3.6359	-2.7942	24.92	-0.04	-0.050			
0.5355	34272.63	3.6350	3.6348	-2.8335	24.90	-0.06	-0.050			
0.5384	34456.40	3.6340	3.6342	-2.8659	24.91	-0.05	-0.050			
0.5413	34641.99	3.6330	3.6330	-2.8953	24.90	-0.06	-0.050	0.333	0.544	
0.5442	34831.45	3.6320	3.6321	-2.9157	24.90	-0.06	-0.050			
0.5472	35019.48	3.6310	3.6309	-2.9276	24.89	-0.07	-0.050			
0.5502	35210.05	3.6300	3.6298	-2.9416	24.89	-0.07	-0.050			
0.5531	35400.18	3.6290	3.6290	-2.9613	24.89	-0.07	-0.050			
0.5561	35591.11	3.6280	3.6280	-2.9808	24.91	-0.05	-0.050			
0.5591	35783.68	3.6270	3.6270	-2.9904	24.91	-0.05	-0.050	0.359	0.604	
0.5621	35975.50	3.6260	3.6260	-2.9902	24.92	-0.04	-0.050			
0.5651	36168.03	3.6250	3.6252	-3.0039	24.93	-0.03	-0.050			
0.5681	36360.18	3.6240	3.6239	-3.0101	24.96	-0.00	-0.050			
0.5712	36554.68	3.6230	3.6230	-3.0071	24.97	0.01	-0.050			
0.5742	36748.30	3.6220	3.6218	-2.9934	24.97	0.01	-0.050			
0.5772	36940.57	3.6210	3.6212	-2.9717	24.98	0.02	-0.050			
0.5802	37132.10	3.6200	3.6200	-2.9549	24.98	0.02	-0.050	0.398	0.521	
0.5832	37326.09	3.6190	3.6192	-2.9441	24.97	0.01	-0.050			
0.5862	37517.22	3.6180	3.6181	-2.9254	24.97	0.01	-0.050			
0.5892	37706.59	3.6170	3.6171	-2.9011	24.97	0.01	-0.050			
0.5920	37890.71	3.6160	3.6160	-2.8733	24.98	0.02	-0.050			
0.5949	38073.72	3.6150	3.6151	-2.8392	24.97	0.01	-0.050			
0.5977	38253.07	3.6140	3.6141	-2.8018	24.93	-0.03	-0.050			
0.6005	38429.70	3.6130	3.6133	-2.7575	24.91	-0.05	-0.050	0.448	0.640	
0.6032	38607.86	3.6120	3.6121	-2.7201	24.89	-0.07	-0.050			
0.6060	38781.74	3.6110	3.6109	-2.6845	24.89	-0.07	-0.050			
0.6086	38952.88	3.6100	3.6099	-2.6374	24.90	-0.06	-0.050			
0.6113	39120.16	3.6090	3.6089	-2.5980	24.91	-0.05	-0.050			
0.6138	39285.84	3.6080	3.6081	-2.5617	24.91	-0.05	-0.050			
0.6164	39449.14	3.6070	3.6069	-2.5256	24.90	-0.06	-0.050			
0.6189	39608.64	3.6060	3.6061	-2.4883	24.91	-0.05	-0.050			
0.6213	39766.05	3.6050	3.6051	-2.4503	24.91	-0.05	-0.050	0.521	0.539	
0.6238	39921.10	3.6040	3.6040	-2.4141	24.92	-0.04	-0.050			
0.6261	40072.46	3.6030	3.6029	-2.3753	24.92	-0.04	-0.050			
0.6285	40223.08	3.6020	3.6018	-2.3395	24.93	-0.03	-0.050			
0.6308	40370.65	3.6010	3.6008	-2.3070	24.94	-0.02	-0.050			
0.6330	40514.48	3.6000	3.6001	-2.2765	24.95	-0.01	-0.050			
0.6353	40656.13	3.5990	3.5993	-2.2459	24.96	0.00	-0.050			
0.6374	40796.67	3.5980	3.5979	-2.2173	24.96	0.00	-0.050			
0.6396	40936.30	3.5970	3.5970	-2.1960	24.97	0.01	-0.050			
0.6418	41076.81	3.5960	3.5960	-2.1711	24.98	0.02	-0.050			
0.6440	41215.33	3.5950	3.5948	-2.1507	24.98	0.02	-0.050			
0.6461	41351.26	3.5940	3.5940	-2.1340	24.98	0.02	-0.050			
0.6482	41487.65	3.5930	3.5930	-2.1176	24.99	0.03	-0.050			
0.6503	41621.70	3.5920	3.5919	-2.0951	24.98	0.02	-0.050			
0.6524	41756.09	3.5910	3.5909	-2.0741	24.98	0.02	-0.050			
0.6545	41886.42	3.5900	3.5900	-2.0550	24.98	0.02	-0.050			
0.6565	42017.34	3.5890	3.5890	-2.0378	24.98	0.02	-0.050			
0.6586	42147.79	3.5880	3.5879	-2.0202	24.98	0.02	-0.050			
0.6606	42276.30	3.5870	3.5873	-2.0008	24.97	0.01	-0.050			
0.6626	42404.04	3.5860	3.5858	-1.9853	24.97	0.01	-0.050			
0.6645	42531.06	3.5850	3.5849	-1.9670	24.96	0.00	-0.050			
0.6665	42656.36	3.5840	3.5839	-1.9475	24.96	-0.00	-0.050			
0.6684	42780.11	3.5830	3.5831	-1.9292	24.96	-0.00	-0.050			
0.6704	42903.04	3.5820	3.5818	-1.9093	24.95	-0.01	-0.050			
0.6723	43024.31	3.5810	3.5809	-1.8905	24.95	-0.01	-0.050			
0.6741	43144.52	3.5800	3.5802	-1.8722	24.94	-0.02	-0.050			
0.6760	43263.57	3.5790	3.5792	-1.8558	24.94	-0.02	-0.050			
0.6778	43381.83	3.5780	3.5780	-1.8392	24.93	-0.03	-0.050			
0.6797	43498.69	3.5770	3.5769	-1.8241	24.92	-0.04	-0.050	0.140	0.606	
0.6815	43615.03	3.5760	3.5761	-1.8098	24.91	-0.05	-0.050			
0.6833	43728.86	3.5750	3.5752	-1.7899	24.91	-0.05	-0.050			
0.6850	43841.84	3.5740	3.5741	-1.7696	24.91	-0.05	-0.050			
0.6868	43956.15	3.5730	3.5730	-1.7597	24.92	-0.04	-0.050			
0.6885	44067.04	3.5720	3.5719	-1.7464	24.92	-0.04	-0.050			
0.6903	44178.04	3.5710	3.5709	-1.7323	24.92	-0.04	-0.050			
0.6920	44285.46	3.5700	3.5699	-1.7183	24.92	-0.04	-0.050			
0.6937	44394.48	3.5690	3.5691	-1.7132	24.92	-0.04	-0.050			
0.6954	44503.75	3.5680	3.5681	-1.7039	24.92	-0.04	-0.050			
0.6971	44612.35	3.5670	3.5672	-1.6956	24.93	-0.03	-0.050			
0.6987	44719.81	3.5660	3.5659	-1.6855	24.92	-0.04	-0.050			
0.7004	44827.98	3.5650	3.5650	-1.6772	24.93	-0.03	-0.050	0.391	0.499	
0.7021	44935.10	3.5640	3.5640	-1.6665	24.94	-0.02	-0.050			
0.7038	45041.08	3.5630	3.5629	-1.6611	24.94	-0.02	-0.050			
0.7054	45147.06	3.5620	3.5622	-1.6557	24.95	-0.01	-0.050			
0.7071	45252.95	3.5610	3.5610	-1.6488	24.95	-0.01	-0.050			
0.7087	45357.63	3.5600	3.5599	-1.6398	24.96	0.00	-0.050			
0.7104	45463.17	3.5590	3.5592	-1.6313	24.98	0.02	-0.050			
0.7120	45567.03	3.5580	3.5580	-1.6267	24.99	0.03	-0.050			
0.7136	45671.18	3.5570	3.5571	-1.6170	24.99	0.03	-0.050			
0.7153	45776.67	3.5560	3.5562	-1.6070	24.99	0.03	-0.050			
0.7169	45881.26	3.5550	3.5549	-1.5936	25.00	0.04	-0.050			
0.7185	45984.39	3.5540	3.5538	-1.5796	25.00	0.04	-0.050			
0.7201	46084.35	3.5530	3.5530	-1.5630	25.01	0.05	-0.050			
0.7216	46183.59	3.5520	3.5520	-1.5479	25.02	0.06	-0.050			
0.7232	46282.81	3.5510	3.5511	-1.5353	25.02	0.06	-0.050			
0.7247	46380.08	3.5500	3.5501	-1.5186	25.02	0.06	-0.050			
0.7262	46477.46	3.5490	3.5490	-1.5059	25.02	0.06	-0.050			
0.7277	46574.53	3.5480	3.5483	-1.4917	25.01	0.05	-0.050			
0.7292	46670.05	3.5470	3.5469	-1.4725	25.01	0.05	-0.050			
0.7307	46765.01	3.5460	3.5460	-1.4515	25.01	0.05	-0.050			
0.7322	46858.04	3.5450	3.5449	-1.4317	25.01	0.05	-0.050			
0.7336	46948.78	3.5440	3.5440	-1.4099	25.01	0.05	-0.050			
0.7350	47037.85	3.5430	3.5429	-1.3848	25.00	0.04	-0.050			
0.7363	47125.75	3.5420	3.5421	-1.3681	24.99	0.03	-0.050			
0.7377	47213.27	3.5410	3.5412	-1.3478	24.98	0.02	-0.050			
0.7390	47298.66	3.5400	3.5401	-1.3278	24.96	0.00	-0.050			
0.7404	47383.74	3.5390	3.5390	-1.3049	24.95	-0.01	-0.050	0.301	0.492	
0.7417	47465.96	3.5380	3.5382	-1.2835	24.95	-0.01	-0.050			
0.7429	47547.99	3.5370	3.5370	-1.2657	24.95	-0.01	-0.050			
0.7442	47629.69	3.5360	3.5360	-1.2457	24.95	-0.01	-0.050			
0.7454	47708.34	3.5350	3.5349	-1.2268	24.94	-0.02	-0.050			
0.7466	47784.80	3.5340	3.5342	-1.2044	24.94	-0.02	-0.050			
0.7478	47859.46	3.5330	3.5328	-1.1840	24.94	-0.02	-0.050			
0.7490	47933.45	3.5320	3.5322	-1.1661	24.95	-0.01	-0.050			
0.7501	48007.14	3.5310	3.5307	-1.1493	24.95	-0.01	-0.050			
0.7512	48079.04	3.5300	3.5300	-1.1369	24.96	-0.00	-0.050			
0.7523	48150.29	3.5290	3.5290	-1.1240	24.96	0.00	-0.050			
0.7535	48221.12	3.5280	3.5282	-1.1140	24.96	0.00	-0.050			
0.7546	48292.24	3.5270	3.5269	-1.1058	24.96	0.00	-0.050			
0.7556	48361.57	3.5260	3.5258	-1.0949	24.97	0.01	-0.050			
0.7567	48430.64	3.5250	3.5249	-1.0814	24.97	0.01	-0.050			
0.7578	48498.90	3.5240	3.5240	-1.0717	24.97	0.01	-0.050			
0.7589	48566.61	3.5230	3.5230	-1.0634	24.97	0.01	-0.050			
0.7599	48633.47	3.5220	3.5219	-1.0530	24.98	0.02	-0.050			
0.7610	48701.65	3.5210	3.5209	-1.0472	24.98	0.02	-0.050			
0.7620	48768.76	3.5200	3.5200	-1.0384	24.98	0.02	-0.050			
0.7631	48835.99	3.5190	3.5190	-1.0311	24.97	0.01	-0.050			
0.7641	48902.12	3.5180	3.5181	-1.0217	24.97	0.01	-0.050			
0.7651	48967.07	3.5170	3.5170	-1.0120	24.97	0.01	-0.050			
0.7661	49031.59	3.5160	3.5160	-1.0066	24.96	0.00	-0.050			
0.7671	49095.18	3.5150	3.5147	-0.9962	24.97	0.01	-0.050			
0.7681	49158.64	3.5140	3.5140	-0.9877	24.96	0.00	-0.050			
0.7691	49220.74	3.5130	3.5130	-0.9827	24.96	0.00	-0.050			
0.7700	49282.80	3.5120	3.5120	-0.9761	24.96	0.00	-0.050			
0.7710	49344.46	3.5110	3.5112	-0.9698	24.96	0.00	-0.050			
0.7720	49405.04	3.5100	3.5101	-0.9627	24.96	0.00	-0.050			
0.7729	49466.30	3.5090	3.5090	-0.9577	24.96	0.00	-0.050			
0.7739	49527.31	3.5080	3.5080	-0.9501	24.95	-0.01	-0.050			
0.7748	49588.14	3.5070	3.5069	-0.9475	24.95	-0.01	-0.050			
0.7757	49648.00	3.5060	3.5061	-0.9457	24.95	-0.01	-0.050			
0.7767	49708.53	3.5050	3.5047	-0.9417	24.95	-0.01	-0.050			
0.7776	49768.23	3.5040	3.5039	-0.9381	24.94	-0.02	-0.050			
0.7785	49827.06	3.5030	3.5032	-0.9383	24.95	-0.01	-0.050			
0.7795	49886.62	3.5020	3.5021	-0.9407	24.93	-0.03	-0.050			
0.7804	49945.41	3.5010	3.5010	-0.9449	24.94	-0.02	-0.050	0.417	0.717	
0.7813	50005.67	3.5000	3.5001	-0.9483	24.94	-0.02	-0.050			
0.7823	50065.45	3.4990	3.4990	-0.9541	24.94	-0.02	-0.050			
0.7832	50124.44	3.4980	3.4978	-0.9607	24.94	-0.02	-0.050			
0.7841	50184.18	3.4970	3.4971	-0.9724	24.94	-0.02	-0.050			
0.7851	50245.15	3.4960	3.4961	-0.9790	24.94	-0.02	-0.050			
0.7860	50305.26	3.4950	3.4949	-0.9984	24.93	-0.03	-0.050			
0.7870	50366.73	3.4940	3.4939	-1.0174	24.93	-0.03	-0.050			
0.7879	50428.12	3.4930	3.4932	-1.0390	24.93	-0.03	-0.050			
0.7890	50493.45	3.4920	3.4921	-1.0670	24.92	-0.04	-0.050			
0.7900	50560.85	3.4910	3.4910	-1.0980	24.92	-0.04	-0.050			
0.7911	50628.67	3.4900	3.4900	-1.1331	24.91	-0.05	-0.050			
0.7922	50699.91	3.4890	3.4889	-1.1737	24.92	-0.04	-0.050			
0.7933	50772.71	3.4880	3.4881	-1.2146	24.91	-0.05	-0.050			
0.7945	50849.91	3.4870	3.4869	-1.2600	24.92	-0.04	-0.050			
0.7958	50929.26	3.4860	3.4857	-1.3061	24.92	-0.04	-0.050			
0.7971	51014.10	3.4850	3.4850	-1.3562	24.92	-0.04	-0.050			
0.7985	51102.86	3.4840	3.4840	-1.4011	24.92	-0.04	-0.050			
0.7999	51193.79	3.4830	3.4830	-1.4486	24.93	-0.03	-0.050	0.358	0.461	
0.8014	51288.51	3.4820	3.4820	-1.4995	24.92	-0.04	-0.050			
0.8029	51387.76	3.4810	3.4809	-1.5484	24.93	-0.03	-0.050			
0.8045	51489.01	3.4800	3.4800	-1.5985	24.95	-0.01	-0.050			
0.8062	51596.06	3.4790	3.4790	-1.6427	24.96	0.00	-0.050			
0.8079	51704.04	3.4780	3.4781	-1.6887	24.97	0.01	-0.050			
0.8096	51816.49	3.4770	3.4772	-1.7286	24.97	0.01	-0.050			
0.8114	51931.21	3.4760	3.4760	-1.7627	24.97	0.01	-0.050			
0.8132	52047.95	3.4750	3.4750	-1.7947	24.98	0.02	-0.050			
0.8151	52167.00	3.4740	3.4738	-1.8230	24.99	0.03	-0.050			
0.8170	52287.92	3.4730	3.4728	-1.8508	25.00	0.04	-0.050			
0.8189	52410.23	3.4720	3.4721	-1.8668	25.00	0.04	-0.050			
0.8208	52533.59	3.4710	3.4710	-1.8768	25.01	0.05	-0.050	0.123	0.502	
0.8228	52657.29	3.4700	3.4700	-1.8853	25.01	0.05	-0.050			
0.8247	52780.17	3.4690	3.4690	-1.8894	25.01	0.05	-0.050			
0.8266	52904.38	3.4680	3.4680	-1.8878	25.02	0.06	-0.050			
0.8286	53028.19	3.4670	3.4670	-1.8824	25.02	0.06	-0.050			
0.8305	53152.45	3.4660	3.4661	-1.8761	25.02	0.06	-0.050			
0.8324	53276.26	3.4650	3.4650	-1.8590	25.03	0.07	-0.050			
0.8343	53397.71	3.4640	3.4642	-1.8393	25.03	0.07	-0.050			
0.8362	53516.09	3.4630	3.4632	-1.8136	25.03	0.07	-0.050			
0.8380	53633.94	3.4620	3.4619	-1.7843	25.02	0.06	-0.050			
0.8398	53748.71	3.4610	3.4612	-1.7540	25.03	0.07	-0.050	0.191	0.517	
0.8416	53862.24	3.4600	3.4600	-1.7205	25.02	0.06	-0.050			
0.8433	53973.29	3.4590	3.4589	-1.6822	25.02	0.06	-0.050			
0.8450	54080.68	3.4580	3.4578	-1.6426	25.02	0.06	-0.050			
0.8467	54186.74	3.4570	3.4571	-1.6049	25.02	0.06	-0.050			
0.8483	54289.03	3.4560	3.4561	-1.5595	25.02	0.06	-0.050			
0.8498	54387.43	3.4550	3.4549	-1.5177	25.01	0.05	-0.050			
0.8513	54482.86	3.4540	3.4540	-1.4706	25.01	0.05	-0.050			
0.8528	54576.39	3.4530	3.4529	-1.4270	25.01	0.05	-0.050			
0.8542	54667.84	3.4520	3.4521	-1.3818	25.01	0.05	-0.050			
0.8555	54754.50	3.4510	3.4510	-1.3342	25.00	0.04	-0.050			
0.8568	54836.90	3.4500	3.4499	-1.2874	24.99	0.03	-0.050			
0.8581	54917.89	3.4490	3.4489	-1.2446	25.00	0.04	-0.050			
0.8593	54995.80	3.4480	3.4481	-1.2002	25.00	0.04	-0.050			
0.8605	55070.09	3.4470	3.4469	-1.1583	24.98	0.02	-0.050			
0.8616	55143.19	3.4460	3.4458	-1.1166	24.98	0.02	-0.050			
0.8627	55213.05	3.4450	3.4453	-1.0749	24.97	0.01	-0.050			
0.8637	55278.46	3.4440	3.4439	-1.0318	24.96	-0.00	-0.050			
0.8647	55342.46	3.4430	3.4430	-0.9931	24.94	-0.02	-0.050			
0.8657	55403.77	3.4420	3.4420	-0.9559	24.94	-0.02	-0.050			
0.8666	55461.87	3.4410	3.4411	-0.9227	24.93	-0.03	-0.050			
0.8675	55519.07	3.4400	3.4398	-0.8907	24.92	-0.04	-0.050			
0.8683	55573.73	3.4390	3.4394	-0.8588	24.92	-0.04	-0.050			
0.8692	55626.24	3.4380	3.4379	-0.8248	24.92	-0.04	-0.050			
0.8700	55677.07	3.4370	3.4370	-0.7972	24.91	-0.05	-0.050			
0.8707	55725.99	3.4360	3.4360	-0.7702	24.92	-0.04	-0.050			
0.8714	55772.54	3.4350	3.4346	-0.7412	24.92	-0.04	-0.050			
0.8722	55819.13	3.4340	3.4339	-0.7191	24.92	-0.04	-0.050			
0.8729	55863.09	3.4330	3.4329	-0.6953	24.91	-0.05	-0.050			
0.8735	55906.44	3.4320	3.4320	-0.6738	24.91	-0.05	-0.050			
0.8742	55948.77	3.4310	3.4311	-0.6518	24.92	-0.04	-0.050			
0.8748	55987.87	3.4300	3.4301	-0.6283	24.93	-0.03	-0.050			
0.8754	56026.71	3.4290	3.4292	-0.6076	24.92	-0.04	-0.050			
0.8760	56064.44	3.4280	3.4282	-0.5943	24.92	-0.04	-0.050			
0.8766	56101.15	3.4270	3.4272	-0.5779	24.93	-0.03	-0.050			
0.8772	56137.71	3.4260	3.4261	-0.5620	24.94	-0.02	-0.050			
0.8777	56173.19	3.4250	3.4250	-0.5471	24.94	-0.02	-0.050			
0.8782	56206.60	3.4240	3.4238	-0.5319	24.94	-0.02	-0.050			
0.8787	56239.61	3.4230	3.4230	-0.5161	24.94	-0.02	-0.050			
0.8792	56271.47	3.4220	3.4221	-0.5025	24.94	-0.02	-0.050			
0.8797	56301.73	3.4210	3.4209	-0.4882	24.94	-0.02	-0.050			
0.8802	56332.21	3.4200	3.4197	-0.4756	24.94	-0.02	-0.050			
0.8807	56361.93	3.4190	3.4190	-0.4643	24.95	-0.01	-0.050	0.498	0.632	
0.8811	56391.31	3.4180	3.4183	-0.4537	24.94	-0.02	-0.050			
0.8816	56420.01	3.4170	3.4172	-0.4416	24.94	-0.02	-0.050			
0.8820	56447.89	3.4160	3.4161	-0.4308	24.95	-0.01	-0.050			
0.8824	56475.11	3.4150	3.4151	-0.4213	24.95	-0.01	-0.050			
0.8828	56501.98	3.4140	3.4137	-0.4111	24.95	-0.01	-0.050			
0.8832	56526.76	3.4130	3.4130	-0.4028	24.95	-0.01	-0.050			
0.8836	56551.46	3.4120	3.4121	-0.3950	24.95	-0.01	-0.050			
0.8840	56576.48	3.4110	3.4111	-0.3868	24.95	-0.01	-0.050			
0.8844	56600.29	3.4100	3.4100	-0.3801	24.95	-0.01	-0.050			
0.8848	56624.37	3.4090	3.4092	-0.3727	24.96	-0.00	-0.050			
0.8851	56646.29	3.4080	3.4081	-0.3633	24.96	-0.00	-0.050			
0.8855	56669.00	3.4070	3.4070	-0.3570	24.95	-0.01	-0.050			
0.8858	56691.71	3.4060	3.4057	-0.3518	24.95	-0.01	-0.050			
0.8862	56713.99	3.4050	3.4047	-0.3465	24.95	-0.01	-0.050			
0.8865	56735.76	3.4040	3.4037	-0.3420	24.95	-0.01	-0.050			
0.8868	56757.49	3.4030	3.4031	-0.3372	24.95	-0.01	-0.050			
0.8872	56778.20	3.4020	3.4022	-0.3321	24.94	-0.02	-0.050			
0.8875	56799.18	3.4010	3.4011	-0.3277	24.94	-0.02	-0.050			
0.8878	56820.10	3.4000	3.4001	-0.3237	24.93	-0.03	-0.050			
0.8881	56840.51	3.3990	3.3990	-0.3193	24.93	-0.03	-0.050			
0.8885	56860.83	3.3980	3.3981	-0.3156	24.93	-0.03	-0.050			
0.8888	56881.43	3.3970	3.3970	-0.3118	24.93	-0.03	-0.050			
0.8891	56901.25	3.3960	3.3960	-0.3075	24.93	-0.03	-0.050			
0.8894	56921.29	3.3950	3.3950	-0.3044	24.93	-0.03	-0.050			
0.8897	56940.62	3.3940	3.3938	-0.2997	24.93	-0.03	-0.050			
0.8900	56959.21	3.3930	3.3929	-0.2944	24.93	-0.03	-0.050			
0.8903	56977.49	3.3920	3.3920	-0.2886	24.93	-0.03	-0.050			
0.8906	56995.83	3.3910	3.3911	-0.2847	24.93	-0.03	-0.050			
0.8908	57013.51	3.3900	3.3902	-0.2832	24.93	-0.03	-0.050			
0.8911	57031.52	3.3890	3.3891	-0.2798	24.93	-0.03	-0.050			
0.8914	57048.97	3.3880	3.3883	-0.2771	24.93	-0.03	-0.050			
0.8917	57066.61	3.3870	3.3868	-0.2741	24.93	-0.03	-0.050			
0.8919	57083.94	3.3860	3.3858	-0.2710	24.93	-0.03	-0.050			
0.8922	57101.07	3.3850	3.3850	-0.2686	24.93	-0.03	-0.050			
0.8925	57117.96	3.3840	3.3841	-0.2655	24.93	-0.03	-0.050			
0.8927	57134.81	3.3830	3.3830	-0.2631	24.93	-0.03	-0.050			
0.8930	57151.14	3.3820	3.3818	-0.2596	24.93	-0.03	-0.050			
0.8932	57167.69	3.3810	3.3808	-0.2576	24.93	-0.03	-0.050			
0.8935	57183.98	3.3800	3.3799	-0.2546	24.93	-0.03	-0.050			
0.8938	57200.21	3.3790	3.3791	-0.2528	24.93	-0.03	-0.050			
0.8940	57216.33	3.3780	3.3782	-0.2510	24.93	-0.03	-0.050			
0.8943	57232.62	3.3770	3.3771	-0.2489	24.93	-0.03	-0.050			
0.8945	57248.48	3.3760	3.3760	-0.2468	24.94	-0.02	-0.050			
0.8948	57264.53	3.3750	3.3751	-0.2452	24.94	-0.02	-0.050			
0.8950	57280.00	3.3740	3.3741	-0.2432	24.94	-0.02	-0.050			
0.8952	57295.50	3.3730	3.3731	-0.2410	24.94	-0.02	-0.050			
0.8955	57310.75	3.3720	3.3718	-0.2396	24.94	-0.02	-0.050			
0.8957	57326.02	3.3710	3.3709	-0.2375	24.94	-0.02	-0.050			
0.8960	57341.21	3.3700	3.3701	-0.2354	24.94	-0.02	-0.050			
0.8962	57355.96	3.3690	3.3691	-0.2339	24.94	-0.02	-0.050			
0.8964	57370.18	3.3680	3.3680	-0.2302	24.94	-0.02	-0.050			
0.8966	57384.87	3.3670	3.3670	-0.2289	24.94	-0.02	-0.050			
0.8969	57399.45	3.3660	3.3661	-0.2278	24.94	-0.02	-0.050			
0.8971	57414.01	3.3650	3.3649	-0.2266	24.94	-0.02	-0.050			
0.8973	57428.47	3.3640	3.3639	-0.2253	24.94	-0.02	-0.050			
0.8975	57442.82	3.3630	3.3630	-0.2238	24.94	-0.02	-0.050			
0.8978	57457.10	3.3620	3.3619	-0.2226	24.94	-0.02	-0.050			
0.8980	57471.31	3.3610	3.3611	-0.2214	24.94	-0.02	-0.050			
0.8982	57484.81	3.3600	3.3601	-0.2220	24.94	-0.02	-0.050			
0.8984	57499.00	3.3590	3.3589	-0.2215	24.94	-0.02	-0.050			
0.8987	57513.70	3.3580	3.3581	-0.2194	24.94	-0.02	-0.050			
0.8989	57527.76	3.3570	3.3570	-0.2186	24.94	-0.02	-0.050			
0.8991	57541.71	3.3560	3.3559	-0.2176	24.94	-0.02	-0.050			
0.8993	57555.50	3.3550	3.3550	-0.2170	24.94	-0.02	-0.050			
0.8995	57569.44	3.3540	3.3540	-0.2162	24.95	-0.01	-0.050			
0.8997	57583.25	3.3530	3.3529	-0.2153	24.95	-0.01	-0.050			
0.9000	57597.25	3.3520	3.3519	-0.2137	24.95	-0.01	-0.050			
0.9002	57610.89	3.3510	3.3509	-0.2124	24.95	-0.01	-0.050			
0.9004	57624.45	3.3500	3.3498	-0.2112	24.95	-0.01	-0.050			
0.9006	57637.80	3.3490	3.3491	-0.2109	24.95	-0.01	-0.050			
0.9008	57651.27	3.3480	3.3479	-0.2099	24.95	-0.01	-0.050	0.280	0.699	
0.9010	57664.66	3.3470	3.3470	-0.2088	24.95	-0.01	-0.050			
0.9012	57678.23	3.3460	3.3459	-0.2076	24.96	-0.00	-0.050			
0.9014	57691.47	3.3450	3.3448	-0.2063	24.96	-0.00	-0.050			
0.9016	57704.64	3.3440	3.3438	-0.2050	24.96	0.00	-0.050			
0.9018	57717.59	3.3430	3.3431	-0.2042	24.96	0.00	-0.050			
0.9020	57730.63	3.3420	3.3422	-0.2031	24.97	0.01	-0.050			
0.9022	57743.59	3.3410	3.3410	-0.2019	24.97	0.01	-0.050			
0.9024	57756.15	3.3400	3.3399	-0.2008	24.97	0.01	-0.050			
0.9026	57768.98	3.3390	3.3389	-0.1999	24.97	0.01	-0.050			
0.9028	57781.15	3.3380	3.3380	-0.1977	24.97	0.01	-0.050			
0.9030	57793.80	3.3370	3.3371	-0.1974	24.97	0.01	-0.050			
0.9032	57806.46	3.3360	3.3362	-0.1969	24.97	0.01	-0.050			
0.9034	57819.63	3.3350	3.3352	-0.1976	24.97	0.01	-0.050			
0.9036	57832.24	3.3340	3.3340	-0.1967	24.98	0.02	-0.050			
0.9038	57844.95	3.3330	3.3328	-0.1954	24.98	0.02	-0.050			
0.9040	57857.14	3.3320	3.3319	-0.1938	24.98	0.02	-0.050			
0.9042	57869.51	3.3310	3.3308	-0.1930	24.98	0.02	-0.050			
0.9044	57882.15	3.3300	3.3300	-0.1913	24.99	0.03	-0.050			
0.9046	57894.72	3.3290	3.3291	-0.1911	24.99	0.03	-0.050			
0.9048	57906.91	3.3280	3.3280	-0.1898	24.99	0.03	-0.050			
0.9050	57919.01	3.3270	3.3270	-0.1885	24.99	0.03	-0.050			
0.9052	57930.74	3.3260	3.3260	-0.1874	24.99	0.03	-0.050			
0.9054	57942.70	3.3250	3.3250	-0.1863	24.98	0.02	-0.050			
0.9055	57954.60	3.3240	3.3241	-0.1853	24.98	0.02	-0.050			
0.9057	57966.24	3.3230	3.3232	-0.1860	24.98	0.02	-0.050			
0.9059	57978.11	3.3220	3.3221	-0.1851	24.98	0.02	-0.050			
0.9061	57989.93	3.3210	3.3210	-0.1843	24.99	0.03	-0.050			
0.9063	58001.34	3.3200	3.3200	-0.1829	24.99	0.03	-0.050			
0.9065	58013.14	3.3190	3.3191	-0.1821	24.99	0.03	-0.050			
0.9066	58024.77	3.3180	3.3179	-0.1814	24.99	0.03	-0.050			
0.9068	58036.36	3.3170	3.3169	-0.1808	24.99	0.03	-0.050			
0.9070	58047.53	3.3160	3.3159	-0.1800	25.00	0.04	-0.050			
0.9072	58059.04	3.3150	3.3149	-0.1797	25.00	0.04	-0.050			
0.9074	58070.53	3.3140	3.3139	-0.1794	25.00	0.04	-0.050			
0.9075	58081.69	3.3130	3.3130	-0.1786	25.00	0.04	-0.050			
0.9077	58093.52	3.3120	3.3120	-0.1776	25.00	0.04	-0.050			
0.9079	58104.87	3.3110	3.3111	-0.1772	25.00	0.04	-0.050			
0.9081	58116.50	3.3100	3.3101	-0.1774	25.00	0.04	-0.050			
0.9082	58127.83	3.3090	3.3092	-0.1767	25.00	0.04	-0.050			
0.9084	58139.05	3.3080	3.3083	-0.1763	25.00	0.04	-0.050			
0.9086	58150.31	3.3070	3.3071	-0.1757	25.01	0.05	-0.050			
0.9088	58161.92	3.3060	3.3058	-0.1757	25.01	0.05	-0.050			
0.9090	58173.07	3.3050	3.3048	-0.1749	25.01	0.05	-0.050			
0.9091	58184.23	3.3040	3.3040	-0.1741	25.01	0.05	-0.050			
0.9093	58195.23	3.3030	3.3031	-0.1730	25.01	0.05	-0.050			
0.9095	58206.28	3.3020	3.3021	-0.1722	25.00	0.04	-0.050			
0.9096	58217.22	3.3010	3.3010	-0.1716	25.00	0.04	-0.050			
0.9098	58228.18	3.3000	3.3001	-0.1709	25.00	0.04	-0.050			
0.9100	58238.82	3.2990	3.2990	-0.1697	25.00	0.04	-0.050			
0.9102	58249.66	3.2980	3.2978	-0.1692	25.00	0.04	-0.050			
0.9103	58260.55	3.2970	3.2970	-0.1684	25.01	0.05	-0.050			
0.9105	58271.53	3.2960	3.2962	-0.1684	25.01	0.05	-0.050			
0.9107	58282.28	3.2950	3.2951	-0.1677	25.01	0.05	-0.050			
0.9108	58292.99	3.2940	3.2938	-0.1669	25.01	0.05	-0.050			
0.9110	58303.47	3.2930	3.2930	-0.1668	25.01	0.05	-0.050			
0.9112	58313.89	3.2920	3.2920	-0.1657	25.01	0.05	-0.050			
0.9113	58324.49	3.2910	3.2909	-0.1654	25.01	0.05	-0.050			
0.9115	58335.06	3.2900	3.2900	-0.1650	25.01	0.05	-0.050			
0.9117	58345.64	3.2890	3.2891	-0.1645	25.01	0.05	-0.050			
0.9118	58356.29	3.2880	3.2880	-0.1643	25.01	0.05	-0.050			
0.9120	58366.79	3.2870	3.2869	-0.1638	25.01	0.05	-0.050			
0.9121	58377.26	3.2860	3.2860	-0.1633	25.01	0.05	-0.050			
0.9123	58387.53	3.2850	3.2849	-0.1623	25.01	0.05	-0.050			
0.9125	58397.90	3.2840	3.2840	-0.1619	25.01	0.05	-0.050			
0.9126	58408.25	3.2830	3.2830	-0.1615	25.01	0.05	-0.050			
0.9128	58418.58	3.2820	3.2820	-0.1612	25.02	0.06	-0.050			
0.9130	58429.08	3.2810	3.2811	-0.1607	25.02	0.06	-0.050			
0.9131	58439.34	3.2800	3.2801	-0.1601	25.02	0.06	-0.050			
0.9133	58449.57	3.2790	3.2790	-0.1596	25.02	0.06	-0.050			
0.9134	58459.77	3.2780	3.2780	-0.1590	25.02	0.06	-0.050			
0.9136	58470.24	3.2770	3.2770	-0.1581	25.01	0.05	-0.050			
0.9138	58480.33	3.2760	3.2760	-0.1572	25.01	0.05	-0.050			
0.9139	58490.36	3.2750	3.2750	-0.1564	25.01	0.05	-0.050			
0.9141	58500.35	3.2740	3.2740	-0.1555	25.01	0.05	-0.050			
0.9142	58510.30	3.2730	3.2730	-0.1554	25.01	0.05	-0.050			
0.9144	58520.22	3.2720	3.2722	-0.1546	25.01	0.05	-0.050			
0.9145	58530.09	3.2710	3.2710	-0.1537	25.01	0.05	-0.050			
0.9147	58539.90	3.2700	3.2700	-0.1529	25.01	0.05	-0.050			
0.9148	58549.24	3.2690	3.2691	-0.1524	25.01	0.05	-0.050			
0.9150	58558.98	3.2680	3.2680	-0.1519	25.01	0.05	-0.050			
0.9151	58568.69	3.2670	3.2670	-0.1515	25.01	0.05	-0.050			
0.9153	58578.36	3.2660	3.2660	-0.1510	25.01	0.05	-0.050			
0.9154	58587.75	3.2650	3.2649	-0.1505	25.01	0.05	-0.050			
0.9156	58597.38	3.2640	3.2641	-0.1503	25.01	0.05	-0.050			
0.9157	58606.98	3.2630	3.2629	-0.1500	25.01	0.05	-0.050			
0.9159	58616.57	3.2620	3.2617	-0.1497	25.01	0.05	-0.050			
0.9160	58626.30	3.2610	3.2609	-0.1484	25.01	0.05	-0.050			
0.9162	58635.79	3.2600	3.2599	-0.1480	25.01	0.05	-0.050			
0.9163	58645.24	3.2590	3.2590	-0.1476	25.01	0.05	-0.050			
0.9165	58654.68	3.2580	3.2581	-0.1472	25.01	0.05	-0.050			
0.9166	58664.16	3.2570	3.2570	-0.1468	25.01	0.05	-0.050			
0.9168	58673.54	3.2560	3.2560	-0.1464	25.01	0.05	-0.050			
0.9169	58682.89	3.2550	3.2550	-0.1459	25.01	0.05	-0.050			
0.9171	58692.21	3.2540	3.2541	-0.1454	25.01	0.05	-0.050			
0.9172	58701.87	3.2530	3.2531	-0.1455	25.01	0.05	-0.050			
0.9174	58711.06	3.2520	3.2521	-0.1449	25.01	0.05	-0.050			
0.9175	58720.31	3.2510	3.2511	-0.1442	25.01	0.05	-0.050			
0.9176	58729.52	3.2500	3.2500	-0.1436	25.01	0.05	-0.050			
0.9178	58738.67	3.2490	3.2489	-0.1429	25.00	0.04	-0.050			
0.9179	58747.79	3.2480	3.2478	-0.1422	25.00	0.04	-0.050			
0.9181	58756.99	3.2470	3.2468	-0.1412	25.00	0.04	-0.050			
0.9182	58766.01	3.2460	3.2459	-0.1405	25.00	0.04	-0.050			
0.9184	58774.90	3.2450	3.2451	-0.1396	25.00	0.04	-0.050			
0.9185	58783.81	3.2440	3.2440	-0.1388	25.00	0.04	-0.050			
0.9186	58792.67	3.2430	3.2430	-0.1381	25.01	0.05	-0.050			
0.9188	58801.07	3.2420	3.2421	-0.1389	25.01	0.05	-0.050			
0.9189	58809.71	3.2410	3.2411	-0.1379	25.01	0.05	-0.050			
0.9190	58818.53	3.2400	3.2401	-0.1377	25.01	0.05	-0.050			
0.9192	58827.34	3.2390	3.2392	-0.1376	25.01	0.05	-0.050			
0.9193	58836.15	3.2380	3.2381	-0.1375	25.01	0.05	-0.050			
0.9195	58845.14	3.2370	3.2370	-0.1364	25.00	0.04	-0.050			
0.9196	58854.01	3.2360	3.2360	-0.1364	25.00	0.04	-0.050			
0.9197	58862.72	3.2350	3.2348	-0.1360	25.00	0.04	-0.050			
0.9199	58871.41	3.2340	3.2339	-0.1355	25.00	0.04	-0.050			
0.9200	58880.11	3.2330	3.2331	-0.1349	25.00	0.04	-0.050			
0.9201	58888.62	3.2320	3.2318	-0.1342	25.00	0.04	-0.050			
0.9203	58897.19	3.2310	3.2307	-0.1338	25.00	0.04	-0.050			
0.9204	58905.74	3.2300	3.2301	-0.1334	25.00	0.04	-0.050			
0.9205	58914.26	3.2290	3.2290	-0.1330	25.00	0.04	-0.050			
0.9207	58922.96	3.2280	3.2280	-0.1318	25.00	0.04	-0.050	0.140	0.555	
0.9208	58931.59	3.2270	3.2270	-0.1318	25.00	0.04	-0.050			
0.9209	58940.00	3.2260	3.2260	-0.1310	25.00	0.04	-0.050			
0.9211	58948.36	3.2250	3.2250	-0.1303	25.00	0.04	-0.050			
0.9212	58956.68	3.2240	3.2239	-0.1296	25.00	0.04	-0.050			
0.9213	58964.67	3.2230	3.2230	-0.1301	25.00	0.04	-0.050			
0.9215	58973.14	3.2220	3.2219	-0.1300	25.00	0.04	-0.050			
0.9216	58981.44	3.2210	3.2210	-0.1294	25.00	0.04	-0.050			
0.9217	58989.70	3.2200	3.2200	-0.1289	25.00	0.04	-0.050			
0.9218	58997.94	3.2190	3.2190	-0.1283	25.00	0.04	-0.050			
0.9220	59006.01	3.2180	3.2180	-0.1283	25.00	0.04	-0.050			
0.9221	59013.63	3.2170	3.2171	-0.1266	25.00	0.04	-0.050			
0.9222	59021.72	3.2160	3.2159	-0.1265	25.00	0.04	-0.050			
0.9223	59029.82	3.2150	3.2151	-0.1264	25.00	0.04	-0.050			
0.9225	59037.91	3.2140	3.2140	-0.1264	25.00	0.04	-0.050			
0.9226	59046.42	3.2130	3.2129	-0.1259	25.00	0.04	-0.050			
0.9227	59054.46	3.2120	3.2117	-0.1255	25.01	0.05	-0.050			
0.9229	59062.48	3.2110	3.2109	-0.1251	25.01	0.05	-0.050			
0.9230	59070.47	3.2100	3.2100	-0.1247	25.01	0.05	-0.050			
0.9231	59078.44	3.2090	3.2090	-0.1242	25.01	0.05	-0.050			
0.9232	59086.32	3.2080	3.2081	-0.1242	25.01	0.05	-0.050			
0.9233	59094.26	3.2070	3.2072	-0.1238	25.00	0.04	-0.050			
0.9235	59102.17	3.2060	3.2062	-0.1234	25.00	0.04	-0.050			
0.9236	59110.06	3.2050	3.2051	-0.1231	25.00	0.04	-0.050			
0.9237	59117.92	3.2040	3.2039	-0.1227	25.00	0.04	-0.050			
0.9238	59125.89	3.2030	3.2029	-0.1229	24.99	0.03	-0.050			
0.9240	59133.74	3.2020	3.2021	-0.1224	24.99	0.03	-0.050			
0.9241	59141.56	3.2010	3.2012	-0.1220	24.99	0.03	-0.050			
0.9242	59149.35	3.2000	3.2001	-0.1215	24.99	0.03	-0.050			
0.9243	59157.11	3.1990	3.1986	-0.1211	24.99	0.03	-0.050			
0.9244	59164.65	3.1980	3.1977	-0.1199	24.99	0.03	-0.050			
0.9246	59172.31	3.1970	3.1969	-0.1195	24.99	0.03	-0.050			
0.9247	59179.95	3.1960	3.1960	-0.1192	24.99	0.03	-0.050			
0.9248	59187.57	3.1950	3.1949	-0.1189	24.99	0.03	-0.050			
0.9249	59195.17	3.1940	3.1940	-0.1186	24.99	0.03	-0.050			
0.9250	59202.85	3.1930	3.1930	-0.1184	24.99	0.03	-0.050			
0.9252	59210.55	3.1920	3.1921	-0.1177	24.99	0.03	-0.050			
0.9253	59218.07	3.1910	3.1910	-0.1172	24.98	0.02	-0.050			
0.9254	59225.56	3.1900	3.1899	-0.1167	24.98	0.02	-0.050			
0.9255	59233.01	3.1890	3.1889	-0.1162	24.98	0.02	-0.050			
0.9256	59240.80	3.1880	3.1881	-0.1161	24.98	0.02	-0.050			
0.9257	59247.69	3.1870	3.1872	-0.1163	24.98	0.02	-0.050			
0.9259	59255.13	3.1860	3.1862	-0.1159	24.98	0.02	-0.050			
0.9260	59262.53	3.1850	3.1849	-0.1156	24.98	0.02	-0.050			
0.9261	59269.92	3.1840	3.1839	-0.1152	24.98	0.02	-0.050			
0.9262	59276.95	3.1830	3.1832	-0.1144	24.98	0.02	-0.050			
0.9263	59284.57	3.1820	3.1820	-0.1138	24.98	0.02	-0.050			
0.9264	59291.84	3.1810	3.1809	-0.1134	24.98	0.02	-0.050			
0.9265	59299.09	3.1800	3.1800	-0.1130	24.98	0.02	-0.050			
0.9267	59306.31	3.1790	3.1788	-0.1127	24.98	0.02	-0.050			
0.9268	59313.45	3.1780	3.1779	-0.1122	24.98	0.02	-0.050			
0.9269	59320.62	3.1770	3.1770	-0.1119	24.98	0.02	-0.050			
0.9270	59327.77	3.1760	3.1759	-0.1116	24.98	0.02	-0.050			
0.9271	59334.83	3.1750	3.1749	-0.1115	24.98	0.02	-0.050			
0.9272	59341.95	3.1740	3.1742	-0.1113	24.98	0.02	-0.050			
0.9273	59349.07	3.1730	3.1732	-0.1110	24.98	0.02	-0.050			
0.9274	59356.26	3.1720	3.1720	-0.1109	24.98	0.02	-0.050			
0.9276	59363.35	3.1710	3.1710	-0.1106	24.98	0.02	-0.050			
0.9277	59370.42	3.1700	3.1701	-0.1103	24.98	0.02	-0.050			
0.9278	59377.68	3.1690	3.1690	-0.1094	24.98	0.02	-0.050			
0.9279	59384.66	3.1680	3.1679	-0.1089	24.98	0.02	-0.050			
0.9280	59391.87	3.1670	3.1668	-0.1089	24.98	0.02	-0.050			
0.9281	59398.83	3.1660	3.1658	-0.1083	24.98	0.02	-0.050			
0.9282	59405.74	3.1650	3.1650	-0.1077	24.98	0.02	-0.050			
0.9283	59412.31	3.1640	3.1638	-0.1076	24.98	0.02	-0.050			
0.9284	59419.19	3.1630	3.1630	-0.1072	24.98	0.02	-0.050			
0.9285	59425.74	3.1620	3.1621	-0.1060	24.98	0.02	-0.050			
0.9286	59432.52	3.1610	3.1612	-0.1057	24.98	0.02	-0.050			
0.9287	59439.28	3.1600	3.1603	-0.1055	24.98	0.02	-0.050			
0.9288	59446.02	3.1590	3.1591	-0.1053	24.98	0.02	-0.050			
0.9289	59452.67	3.1580	3.1581	-0.1053	24.98	0.02	-0.050			
0.9291	59459.40	3.1570	3.1570	-0.1051	24.98	0.02	-0.050			
0.9292	59466.12	3.1560	3.1558	-0.1049	24.98	0.02	-0.050			
0.9293	59472.90	3.1550	3.1549	-0.1049	24.98	0.02	-0.050			
0.9294	59479.61	3.1540	3.1539	-0.1046	24.98	0.02	-0.050			
0.9295	59486.30	3.1530	3.1529	-0.1044	24.98	0.02	-0.050			
0.9296	59492.96	3.1520	3.1519	-0.1042	24.98	0.02	-0.050			
0.9297	59499.63	3.1510	3.1508	-0.1040	24.98	0.02	-0.050			
0.9298	59506.28	3.1500	3.1499	-0.1038	24.98	0.02	-0.050			
0.9299	59512.61	3.1490	3.1490	-0.1030	24.98	0.02	-0.050			
0.9300	59519.20	3.1480	3.1479	-0.1030	24.98	0.02	-0.050			
0.9301	59525.79	3.1470	3.1471	-0.1029	24.98	0.02	-0.050			
0.9302	59532.38	3.1460	3.1463	-0.1029	24.98	0.02	-0.050			
0.9303	59539.14	3.1450	3.1451	-0.1022	24.98	0.02	-0.050			
0.9304	59546.03	3.1440	3.1440	-0.1029	24.98	0.02	-0.050			
0.9305	59552.61	3.1430	3.1430	-0.1025	24.98	0.02	-0.050			
0.9306	59559.15	3.1420	3.1421	-0.1021	24.98	0.02	-0.050			
0.9307	59565.67	3.1410	3.1410	-0.1017	24.98	0.02	-0.050			
0.9308	59572.17	3.1400	3.1398	-0.1013	24.98	0.02	-0.050			
0.9309	59578.75	3.1390	3.1388	-0.1005	24.98	0.02	-0.050			
0.9310	59585.26	3.1380	3.1378	-0.1003	24.98	0.02	-0.050			
0.9311	59591.65	3.1370	3.1370	-0.0997	24.98	0.02	-0.050			
0.9312	59598.02	3.1360	3.1361	-0.0992	24.98	0.02	-0.050			
0.9313	59604.35	3.1350	3.1350	-0.0986	24.98	0.02	-0.050			
0.9314	59610.64	3.1340	3.1340	-0.0981	24.98	0.02	-0.050			
0.9315	59616.78	3.1330	3.1332	-0.0980	24.98	0.02	-0.050			
0.9316	59623.01	3.1320	3.1321	-0.0974	24.98	0.02	-0.050			
0.9317	59629.24	3.1310	3.1310	-0.0970	24.98	0.02	-0.050			
0.9318	59635.43	3.1300	3.1299	-0.0965	24.98	0.02	-0.050			
0.9319	59641.59	3.1290	3.1290	-0.0961	24.99	0.03	-0.050			
0.9320	59647.73	3.1280	3.1282	-0.0957	24.99	0.03	-0.050			
0.9321	59653.84	3.1270	3.1272	-0.0952	24.99	0.03	-0.050			
0.9322	59659.83	3.1260	3.1260	-0.0951	24.99	0.03	-0.050			
0.9323	59665.76	3.1250	3.1249	-0.0944	24.99	0.03	-0.050			
0.9324	59671.79	3.1240	3.1239	-0.0941	24.99	0.03	-0.050			
0.9325	59677.80	3.1230	3.1230	-0.0938	24.99	0.03	-0.050			
0.9326	59683.79	3.1220	3.1220	-0.0935	24.99	0.03	-0.050			
0.9327	59689.77	3.1210	3.1209	-0.0932	24.99	0.03	-0.050			
0.9327	59695.72	3.1200	3.1199	-0.0929	24.99	0.03	-0.050			
0.9328	59701.60	3.1190	3.1189	-0.0924	24.99	0.03	-0.050			
0.9329	59707.50	3.1180	3.1179	-0.0921	24.99	0.03	-0.050			
0.9330	59713.39	3.1170	3.1170	-0.0919	24.99	0.03	-0.050			
0.9331	59719.27	3.1160	3.1161	-0.0916	24.99	0.03	-0.050			
0.9332	59725.12	3.1150	3.1151	-0.0914	24.99	0.03	-0.050			
0.9333	59730.96	3.1140	3.1140	-0.0911	24.99	0.03	-0.050			
0.9334	59736.94	3.1130	3.1130	-0.0910	24.99	0.03	-0.050			
0.9335	59742.59	3.1120	3.1121	-0.0909	24.99	0.03	-0.050			
0.9336	59748.40	3.1110	3.1111	-0.0907	24.99	0.03	-0.050			
0.9337	59754.20	3.1100	3.1100	-0.0904	24.99	0.03	-0.050			
0.9337	59759.98	3.1090	3.1090	-0.0902	24.99	0.03	-0.050			
0.9338	59765.74	3.1080	3.1079	-0.0899	24.99	0.03	-0.050			
0.9339	59771.49	3.1070	3.1070	-0.0897	24.99	0.03	-0.050			
0.9340	59777.16	3.1060	3.1060	-0.0893	24.99	0.03	-0.050			
0.9341	59782.87	3.1050	3.1050	-0.0891	24.99	0.03	-0.050			
0.9342	59788.56	3.1040	3.1040	-0.0889	24.99	0.03	-0.050			
0.9343	59794.24	3.1030	3.1029	-0.0887	24.99	0.03	-0.050			
0.9344	59799.91	3.1020	3.1019	-0.0885	24.99	0.03	-0.050			
0.9345	59805.57	3.1010	3.1010	-0.0883	24.99	0.03	-0.050			
0.9346	59811.21	3.1000	3.1000	-0.0881	24.99	0.03	-0.050			
0.9346	59816.82	3.0990	3.0990	-0.0879	24.99	0.03	-0.050			
0.9347	59822.64	3.0980	3.0981	-0.0874	24.99	0.03	-0.050			
0.9348	59828.22	3.0970	3.0972	-0.0871	24.99	0.03	-0.050			
0.9349	59833.78	3.0960	3.0959	-0.0867	24.99	0.03	-0.050			
0.9350	59839.32	3.0950	3.0948	-0.0864	24.99	0.03	-0.050			
0.9351	59844.84	3.0940	3.0939	-0.0861	24.99	0.03	-0.050			
0.9352	59850.34	3.0930	3.0929	-0.0858	24.99	0.03	-0.050			
0.9353	59856.06	3.0920	3.0919	-0.0857	25.00	0.04	-0.050			
0.9353	59861.53	3.0910	3.0909	-0.0852	25.00	0.04	-0.050			
0.9354	59866.61	3.0900	3.0900	-0.0855	25.00	0.04	-0.050			
0.9355	59872.08	3.0890	3.0891	-0.0853	25.00	0.04	-0.050			
0.9356	59877.54	3.0880	3.0882	-0.0851	25.00	0.04	-0.050			
0.9357	59882.98	3.0870	3.0872	-0.0849	25.00	0.04	-0.050			
0.9358	59888.14	3.0860	3.0861	-0.0844	25.00	0.04	-0.050			
0.9358	59893.54	3.0850	3.0850	-0.0843	25.00	0.04	-0.050			
0.9359	59899.11	3.0840	3.0840	-0.0840	25.00	0.04	-0.050			
0.9360	59904.48	3.0830	3.0830	-0.0838	25.00	0.04	-0.050			
0.9361	59909.84	3.0820	3.0820	-0.0836	25.00	0.04	-0.050			
0.9362	59915.18	3.0810	3.0809	-0.0835	25.00	0.04	-0.050			
0.9363	59920.52	3.0800	3.0798	-0.0833	25.00	0.04	-0.050			
0.9363	59925.85	3.0790	3.0788	-0.0832	25.00	0.04	-0.050			
0.9364	59931.09	3.0780	3.0778	-0.0829	25.00	0.04	-0.050			
0.9365	59936.39	3.0770	3.0772	-0.0828	25.00	0.04	-0.050			
0.9366	59941.80	3.0760	3.0760	-0.0824	25.00	0.04	-0.050			
0.9367	59947.06	3.0750	3.0750	-0.0822	25.00	0.04	-0.050			
0.9368	59952.32	3.0740	3.0740	-0.0821	25.00	0.04	-0.050			
0.9368	59957.57	3.0730	3.0731	-0.0819	25.00	0.04	-0.050			
0.9369	59962.80	3.0720	3.0721	-0.0817	25.00	0.04	-0.050			
0.9370	59968.02	3.0710	3.0711	-0.0815	25.00	0.04	-0.050			
0.9371	59973.60	3.0700	3.0699	-0.0817	25.00	0.04	-0.050			
0.9372	59978.81	3.0690	3.0689	-0.0813	25.00	0.04	-0.050			
0.9372	59984.00	3.0680	3.0679	-0.0809	25.00	0.04	-0.050			
0.9373	59989.17	3.0670	3.0671	-0.0805	25.00	0.04	-0.050			
0.9374	59994.31	3.0660	3.0660	-0.0802	25.00	0.04	-0.050			
0.9375	59999.43	3.0650	3.0649	-0.0798	25.00	0.04	-0.050			
0.9376	60004.39	3.0640	3.0639	-0.0792	25.00	0.04	-0.050			
0.9376	60009.44	3.0630	3.0629	-0.0789	25.00	0.04	-0.050			
0.9377	60014.48	3.0620	3.0620	-0.0785	25.00	0.04	-0.050			
0.9378	60019.50	3.0610	3.0610	-0.0782	25.00	0.04	-0.050			
0.9379	60024.38	3.0600	3.0600	-0.0782	25.00	0.04	-0.050			
0.9380	60029.38	3.0590	3.0591	-0.0780	25.00	0.04	-0.050			
0.9380	60034.36	3.0580	3.0581	-0.0777	25.00	0.04	-0.050			
0.9381	60039.33	3.0570	3.0572	-0.0775	25.00	0.04	-0.050			
0.9382	60044.28	3.0560	3.0561	-0.0772	25.00	0.04	-0.050			
0.9383	60049.22	3.0550	3.0549	-0.0770	25.00	0.04	-0.050			
0.9383	60054.14	3.0540	3.0539	-0.0768	25.00	0.04	-0.050			
0.9384	60059.04	3.0530	3.0529	-0.0765	25.00	0.04	-0.050			
0.9385	60063.82	3.0520	3.0519	-0.0766	25.00	0.04	-0.050			
0.9386	60068.72	3.0510	3.0509	-0.0764	25.00	0.04	-0.050			
0.9387	60073.60	3.0500	3.0500	-0.0762	25.00	0.04	-0.050			
0.9387	60078.47	3.0490	3.0490	-0.0760	25.00	0.04	-0.050			
0.9388	60083.11	3.0480	3.0480	-0.0755	25.00	0.04	-0.050			
0.9389	60087.94	3.0470	3.0470	-0.0755	25.00	0.04	-0.050			
0.9389	60092.76	3.0460	3.0461	-0.0754	25.00	0.04	-0.050			
0.9390	60097.79	3.0450	3.0450	-0.0750	25.00	0.04	-0.050			
0.9391	60102.58	3.0440	3.0440	-0.0748	25.00	0.04	-0.050			
0.9392	60107.37	3.0430	3.0430	-0.0746	25.00	0.04	-0.050			
0.9393	60112.14	3.0420	3.0419	-0.0745	25.00	0.04	-0.050			
0.9393	60116.90	3.0410	3.0410	-0.0743	25.00	0.04	-0.050			
0.9394	60121.87	3.0400	3.0399	-0.0744	25.01	0.05	-0.050			
0.9395	60126.63	3.0390	3.0390	-0.0742	25.01	0.05	-0.050			
0.9396	60131.36	3.0380	3.0380	-0.0739	25.01	0.05	-0.050			
0.9396	60136.02	3.0370	3.0370	-0.0737	25.01	0.05	-0.050			
0.9397	60140.73	3.0360	3.0361	-0.0734	25.01	0.05	-0.050			
0.9398	60145.42	3.0350	3.0351	-0.0732	25.01	0.05	-0.050			
0.9398	60150.10	3.0340	3.0341	-0.0729	25.01	0.05	-0.050			
0.9399	60154.75	3.0330	3.0330	-0.0727	25.01	0.05	-0.050			
0.9400	60159.41	3.0320	3.0320	-0.0724	25.01	0.05	-0.050			
0.9401	60163.93	3.0310	3.0310	-0.0723	25.01	0.05	-0.050			
0.9401	60168.55	3.0300	3.0300	-0.0721	25.01	0.05	-0.050			
0.9402	60173.16	3.0290	3.0291	-0.0719	25.01	0.05	-0.050			
0.9403	60177.75	3.0280	3.0280	-0.0717	25.01	0.05	-0.050			
0.9403	60182.33	3.0270	3.0270	-0.0715	25.01	0.05	-0.050			
0.9404	60186.90	3.0260	3.0259	-0.0713	25.01	0.05	-0.050			
0.9405	60191.33	3.0250	3.0249	-0.0708	25.01	0.05	-0.050			
0.9406	60195.86	3.0240	3.0240	-0.0707	25.01	0.05	-0.050			
0.9406	60200.38	3.0230	3.0231	-0.0706	25.01	0.05	-0.050			
0.9407	60204.89	3.0220	3.0223	-0.0704	25.01	0.05	-0.050	0.328	0.525	
0.9408	60209.42	3.0210	3.0212	-0.0702	25.01	0.05	-0.050			
0.9408	60213.91	3.0200	3.0202	-0.0701	25.01	0.05	-0.050			
0.9409	60218.39	3.0190	3.0190	-0.0699	25.01	0.05	-0.050			
0.9410	60222.86	3.0180	3.0180	-0.0698	25.01	0.05	-0.050			
0.9411	60227.38	3.0170	3.0169	-0.0697	25.01	0.05	-0.050			
0.9411	60231.83	3.0160	3.0160	-0.0695	25.01	0.05	-0.050			
0.9412	60236.27	3.0150	3.0150	-0.0693	25.01	0.05	-0.050			
0.9413	60240.71	3.0140	3.0139	-0.0692	25.01	0.05	-0.050			
0.9413	60245.13	3.0130	3.0129	-0.0690	25.01	0.05	-0.050			
0.9414	60249.54	3.0120	3.0120	-0.0688	25.01	0.05	-0.050			
0.9415	60253.92	3.0110	3.0111	-0.0686	25.01	0.05	-0.050			
0.9415	60258.31	3.0100	3.0101	-0.0685	25.01	0.05	-0.050			
0.9416	60262.68	3.0090	3.0090	-0.0683	25.01	0.05	-0.050			
0.9417	60267.05	3.0080	3.0081	-0.0681	25.01	0.05	-0.050			
0.9417	60271.41	3.0070	3.0071	-0.0680	25.01	0.05	-0.050			
0.9418	60275.75	3.0060	3.0060	-0.0678	25.01	0.05	-0.050			
0.9419	60280.09	3.0050	3.0049	-0.0677	25.01	0.05	-0.050			
