Ah_balance (normalized)	Ah_balance (mAh)	Voltage - fit (V)	Voltage -  interpolate (V)	dQ/dV (1/V)	Temperature (°C)	Temperature - diff (°C)	Current (C)	R_DC 0ms (mOhm)	R_DC 50ms (mOhm)	R_DC 50 ms PEC (mOhm)
0.0001	5.54	4.1860	4.1860	-0.3064	25.03	0.00	-0.050			
0.0004	26.10	4.1850	4.1845	-0.3363	25.03	0.00	-0.050			
0.0008	48.90	4.1840	4.1839	-0.3722	25.03	0.00	-0.050			
0.0012	74.78	4.1830	4.1830	-0.4089	25.03	0.00	-0.050			
0.0016	102.33	4.1820	4.1819	-0.4344	25.03	0.00	-0.050			
0.0021	131.30	4.1810	4.1809	-0.4567	25.03	0.00	-0.050			
0.0025	161.64	4.1800	4.1796	-0.4774	25.03	0.00	-0.050			
0.0030	193.70	4.1790	4.1787	-0.4966	25.03	0.00	-0.050			
0.0036	227.70	4.1780	4.1778	-0.5130	25.03	0.00	-0.050			
0.0041	261.52	4.1770	4.1771	-0.5277	25.02	-0.01	-0.050			
0.0046	296.84	4.1760	4.1758	-0.5399	25.02	-0.01	-0.050			
0.0052	332.52	4.1750	4.1751	-0.5510	25.02	-0.01	-0.050			
0.0058	368.60	4.1740	4.1742	-0.5616	25.02	-0.01	-0.050			
0.0064	407.17	4.1730	4.1729	-0.5770	25.02	-0.01	-0.050			
0.0070	446.05	4.1720	4.1721	-0.5873	25.02	-0.01	-0.050			
0.0076	483.85	4.1710	4.1709	-0.5945	25.03	-0.00	-0.050			
0.0082	523.05	4.1700	4.1700	-0.6027	25.02	-0.01	-0.050			
0.0088	562.46	4.1690	4.1689	-0.6108	25.02	-0.01	-0.050			
0.0094	601.87	4.1680	4.1681	-0.6142	25.01	-0.02	-0.050			
0.0100	641.13	4.1670	4.1670	-0.6180	25.00	-0.03	-0.050			
0.0106	681.23	4.1660	4.1659	-0.6243	25.01	-0.02	-0.050			
0.0113	721.69	4.1650	4.1648	-0.6280	25.02	-0.01	-0.050			
0.0119	762.36	4.1640	4.1639	-0.6315	25.02	-0.01	-0.050			
0.0125	802.95	4.1630	4.1632	-0.6367	25.03	-0.00	-0.050			
0.0132	844.36	4.1620	4.1620	-0.6402	25.02	-0.01	-0.050			
0.0138	885.03	4.1610	4.1610	-0.6439	25.01	-0.02	-0.050			
0.0145	925.92	4.1600	4.1601	-0.6491	25.01	-0.02	-0.050			
0.0151	967.99	4.1590	4.1590	-0.6525	25.01	-0.02	-0.050			
0.0158	1010.04	4.1580	4.1580	-0.6579	25.01	-0.02	-0.050			
0.0164	1052.55	4.1570	4.1572	-0.6623	25.01	-0.02	-0.050			
0.0171	1095.05	4.1560	4.1559	-0.6642	25.02	-0.01	-0.050			
0.0178	1138.27	4.1550	4.1550	-0.6674	25.03	0.00	-0.050			
0.0185	1180.88	4.1540	4.1539	-0.6697	25.03	0.00	-0.050			
0.0191	1223.43	4.1530	4.1529	-0.6729	25.03	0.00	-0.050			
0.0198	1266.58	4.1520	4.1520	-0.6756	25.03	0.00	-0.050	0.311	0.535	
0.0205	1310.18	4.1510	4.1512	-0.6798	25.03	0.00	-0.050			
0.0211	1353.46	4.1500	4.1501	-0.6826	25.03	0.00	-0.050			
0.0218	1397.33	4.1490	4.1490	-0.6864	25.04	0.01	-0.050			
0.0225	1441.76	4.1480	4.1481	-0.6884	25.04	0.01	-0.050			
0.0232	1486.35	4.1470	4.1470	-0.6908	25.05	0.02	-0.050			
0.0239	1530.76	4.1460	4.1459	-0.6927	25.05	0.02	-0.050			
0.0246	1575.57	4.1450	4.1450	-0.6965	25.05	0.02	-0.050			
0.0253	1620.24	4.1440	4.1439	-0.6987	25.04	0.01	-0.050			
0.0260	1664.49	4.1430	4.1429	-0.7021	25.04	0.01	-0.050			
0.0267	1709.59	4.1420	4.1421	-0.7023	25.04	0.01	-0.050			
0.0274	1754.83	4.1410	4.1408	-0.7048	25.05	0.02	-0.050			
0.0281	1800.06	4.1400	4.1403	-0.7044	25.05	0.02	-0.050			
0.0288	1845.26	4.1390	4.1392	-0.7064	25.05	0.02	-0.050			
0.0295	1890.29	4.1380	4.1378	-0.7122	25.06	0.03	-0.050			
0.0302	1935.98	4.1370	4.1368	-0.7129	25.05	0.02	-0.050			
0.0310	1981.92	4.1360	4.1359	-0.7160	25.05	0.02	-0.050			
0.0317	2028.62	4.1350	4.1350	-0.7155	25.06	0.03	-0.050			
0.0324	2074.56	4.1340	4.1339	-0.7158	25.06	0.03	-0.050			
0.0331	2120.74	4.1330	4.1333	-0.7156	25.06	0.03	-0.050			
0.0338	2166.29	4.1320	4.1320	-0.7165	25.06	0.03	-0.050			
0.0346	2212.57	4.1310	4.1309	-0.7175	25.05	0.02	-0.050			
0.0353	2257.86	4.1300	4.1300	-0.7202	25.05	0.02	-0.050			
0.0360	2304.25	4.1290	4.1288	-0.7210	25.05	0.02	-0.050			
0.0367	2350.30	4.1280	4.1281	-0.7235	25.05	0.02	-0.050			
0.0375	2397.03	4.1270	4.1269	-0.7245	25.05	0.02	-0.050			
0.0382	2442.40	4.1260	4.1260	-0.7263	25.05	0.02	-0.050			
0.0389	2488.86	4.1250	4.1249	-0.7271	25.04	0.01	-0.050			
0.0396	2535.45	4.1240	4.1239	-0.7275	25.05	0.02	-0.050			
0.0403	2582.32	4.1230	4.1228	-0.7284	25.05	0.02	-0.050	0.088	0.604	
0.0411	2628.84	4.1220	4.1218	-0.7298	25.04	0.01	-0.050			
0.0418	2675.83	4.1210	4.1208	-0.7344	25.04	0.01	-0.050			
0.0425	2722.26	4.1200	4.1202	-0.7356	25.03	0.00	-0.050			
0.0433	2769.34	4.1190	4.1189	-0.7387	25.04	0.01	-0.050			
0.0440	2816.75	4.1180	4.1181	-0.7373	25.05	0.02	-0.050			
0.0447	2863.46	4.1170	4.1169	-0.7426	25.04	0.01	-0.050			
0.0455	2911.72	4.1160	4.1160	-0.7481	25.03	0.00	-0.050			
0.0462	2959.96	4.1150	4.1150	-0.7497	25.03	0.00	-0.050			
0.0470	3008.43	4.1140	4.1138	-0.7538	25.03	0.00	-0.050			
0.0478	3056.51	4.1130	4.1129	-0.7542	25.03	0.00	-0.050			
0.0485	3104.80	4.1120	4.1118	-0.7562	25.03	0.00	-0.050			
0.0493	3153.05	4.1110	4.1110	-0.7572	25.03	0.00	-0.050			
0.0500	3202.05	4.1100	4.1101	-0.7580	25.02	-0.01	-0.050			
0.0508	3250.42	4.1090	4.1089	-0.7586	25.01	-0.02	-0.050			
0.0516	3300.16	4.1080	4.1078	-0.7599	25.02	-0.01	-0.050			
0.0523	3348.98	4.1070	4.1071	-0.7625	25.02	-0.01	-0.050			
0.0531	3397.95	4.1060	4.1060	-0.7635	25.03	-0.00	-0.050			
0.0538	3446.37	4.1050	4.1049	-0.7643	25.02	-0.01	-0.050			
0.0546	3497.23	4.1040	4.1042	-0.7638	25.01	-0.02	-0.050			
0.0554	3546.47	4.1030	4.1030	-0.7622	25.01	-0.02	-0.050			
0.0562	3595.12	4.1020	4.1020	-0.7606	25.01	-0.02	-0.050			
0.0569	3643.94	4.1010	4.1011	-0.7581	25.02	-0.01	-0.050			
0.0577	3691.59	4.1000	4.0999	-0.7615	25.02	-0.01	-0.050			
0.0584	3739.99	4.0990	4.0990	-0.7621	25.02	-0.01	-0.050			
0.0592	3788.35	4.0980	4.0979	-0.7635	25.01	-0.02	-0.050			
0.0599	3836.06	4.0970	4.0971	-0.7624	25.01	-0.02	-0.050			
0.0607	3884.97	4.0960	4.0960	-0.7630	25.01	-0.02	-0.050			
0.0615	3933.88	4.0950	4.0950	-0.7657	25.01	-0.02	-0.050			
0.0622	3982.48	4.0940	4.0942	-0.7668	25.01	-0.02	-0.050			
0.0630	4031.14	4.0930	4.0928	-0.7719	25.02	-0.01	-0.050			
0.0638	4080.48	4.0920	4.0919	-0.7747	25.01	-0.02	-0.050			
0.0645	4130.34	4.0910	4.0908	-0.7761	25.01	-0.02	-0.050			
0.0653	4180.64	4.0900	4.0904	-0.7774	25.01	-0.02	-0.050			
0.0661	4230.64	4.0890	4.0889	-0.7777	25.02	-0.01	-0.050			
0.0669	4280.35	4.0880	4.0881	-0.7811	25.01	-0.02	-0.050			
0.0677	4330.41	4.0870	4.0871	-0.7820	25.00	-0.03	-0.050			
0.0684	4380.66	4.0860	4.0859	-0.7840	25.01	-0.02	-0.050			
0.0693	4432.06	4.0850	4.0850	-0.7878	25.02	-0.01	-0.050			
0.0701	4483.28	4.0840	4.0839	-0.7888	25.01	-0.02	-0.050			
0.0709	4534.83	4.0830	4.0833	-0.7919	25.01	-0.02	-0.050			
0.0716	4584.99	4.0820	4.0822	-0.7894	25.00	-0.03	-0.050			
0.0724	4634.47	4.0810	4.0810	-0.7919	24.99	-0.04	-0.050			
0.0732	4685.32	4.0800	4.0800	-0.7871	25.00	-0.03	-0.050			
0.0740	4736.72	4.0790	4.0789	-0.7876	25.01	-0.02	-0.050			
0.0748	4787.35	4.0780	4.0779	-0.7865	25.01	-0.02	-0.050			
0.0756	4837.56	4.0770	4.0770	-0.7865	25.01	-0.02	-0.050			
0.0764	4887.96	4.0760	4.0761	-0.7880	25.00	-0.03	-0.050			
0.0772	4937.66	4.0750	4.0750	-0.7888	25.00	-0.03	-0.050			
0.0779	4987.88	4.0740	4.0742	-0.7877	25.00	-0.03	-0.050			
0.0787	5037.93	4.0730	4.0730	-0.7867	25.01	-0.02	-0.050			
0.0795	5088.38	4.0720	4.0719	-0.7895	25.01	-0.02	-0.050			
0.0803	5139.08	4.0710	4.0711	-0.7916	25.01	-0.02	-0.050	0.307	0.507	
0.0811	5189.51	4.0700	4.0701	-0.7947	25.00	-0.03	-0.050			
0.0819	5239.87	4.0690	4.0687	-0.7966	25.01	-0.02	-0.050			
0.0827	5290.22	4.0680	4.0679	-0.7948	25.00	-0.03	-0.050			
0.0835	5341.23	4.0670	4.0670	-0.7955	25.01	-0.02	-0.050			
0.0843	5392.36	4.0660	4.0659	-0.7989	25.02	-0.01	-0.050			
0.0851	5443.37	4.0650	4.0651	-0.8005	25.03	-0.00	-0.050			
0.0859	5494.59	4.0640	4.0640	-0.8028	25.02	-0.01	-0.050			
0.0867	5546.31	4.0630	4.0628	-0.8053	25.02	-0.01	-0.050			
0.0875	5597.64	4.0620	4.0619	-0.8069	25.02	-0.01	-0.050			
0.0883	5649.53	4.0610	4.0611	-0.8084	25.02	-0.01	-0.050			
0.0891	5702.64	4.0600	4.0600	-0.8114	25.03	-0.00	-0.050			
0.0899	5755.88	4.0590	4.0591	-0.8143	25.04	0.01	-0.050			
0.0907	5807.40	4.0580	4.0577	-0.8139	25.04	0.01	-0.050			
0.0915	5858.84	4.0570	4.0570	-0.8140	25.04	0.01	-0.050			
0.0924	5910.85	4.0560	4.0560	-0.8137	25.04	0.01	-0.050			
0.0932	5963.09	4.0550	4.0551	-0.8140	25.05	0.02	-0.050			
0.0940	6015.16	4.0540	4.0542	-0.8160	25.05	0.02	-0.050			
0.0948	6067.65	4.0530	4.0530	-0.8182	25.05	0.02	-0.050			
0.0956	6120.04	4.0520	4.0522	-0.8159	25.06	0.03	-0.050			
0.0964	6172.03	4.0510	4.0509	-0.8172	25.06	0.03	-0.050			
0.0973	6224.77	4.0500	4.0499	-0.8170	25.06	0.03	-0.050			
0.0981	6277.23	4.0490	4.0490	-0.8175	25.06	0.03	-0.050			
0.0989	6329.50	4.0480	4.0481	-0.8193	25.05	0.02	-0.050			
0.0997	6382.55	4.0470	4.0469	-0.8201	25.06	0.03	-0.050	0.512	0.622	
0.1005	6434.45	4.0460	4.0460	-0.8186	25.06	0.03	-0.050			
0.1014	6487.02	4.0450	4.0449	-0.8186	25.06	0.03	-0.050			
0.1022	6538.99	4.0440	4.0442	-0.8204	25.05	0.02	-0.050			
0.1030	6591.69	4.0430	4.0430	-0.8214	25.04	0.01	-0.050			
0.1038	6644.50	4.0420	4.0417	-0.8223	25.04	0.01	-0.050			
0.1046	6697.08	4.0410	4.0411	-0.8231	25.04	0.01	-0.050			
0.1055	6749.38	4.0400	4.0402	-0.8255	25.04	0.01	-0.050			
0.1063	6802.22	4.0390	4.0389	-0.8264	25.04	0.01	-0.050			
0.1071	6855.41	4.0380	4.0382	-0.8251	25.04	0.01	-0.050			
0.1079	6908.41	4.0370	4.0369	-0.8248	25.03	0.00	-0.050			
0.1088	6961.35	4.0360	4.0358	-0.8233	25.03	0.00	-0.050			
0.1096	7014.57	4.0350	4.0349	-0.8247	25.04	0.01	-0.050			
0.1104	7066.78	4.0340	4.0340	-0.8253	25.03	-0.00	-0.050			
0.1112	7119.28	4.0330	4.0330	-0.8266	25.01	-0.02	-0.050			
0.1121	7172.44	4.0320	4.0322	-0.8285	25.01	-0.02	-0.050			
0.1129	7225.09	4.0310	4.0308	-0.8300	25.01	-0.02	-0.050			
0.1137	7278.34	4.0300	4.0301	-0.8317	25.02	-0.01	-0.050			
0.1146	7331.57	4.0290	4.0292	-0.8342	25.02	-0.01	-0.050			
0.1154	7383.88	4.0280	4.0277	-0.8358	25.02	-0.01	-0.050			
0.1162	7437.74	4.0270	4.0270	-0.8374	25.01	-0.02	-0.050			
0.1170	7491.15	4.0260	4.0258	-0.8410	25.01	-0.02	-0.050			
0.1179	7544.80	4.0250	4.0249	-0.8429	25.02	-0.01	-0.050			
0.1187	7598.20	4.0240	4.0242	-0.8440	25.01	-0.02	-0.050			
0.1196	7652.63	4.0230	4.0231	-0.8469	25.01	-0.02	-0.050			
0.1204	7707.26	4.0220	4.0220	-0.8483	25.00	-0.03	-0.050	0.267	0.463	
0.1213	7762.59	4.0210	4.0211	-0.8521	25.00	-0.03	-0.050			
0.1221	7817.04	4.0200	4.0198	-0.8520	25.01	-0.02	-0.050			
0.1230	7872.20	4.0190	4.0189	-0.8525	25.01	-0.02	-0.050			
0.1239	7928.47	4.0180	4.0182	-0.8565	25.00	-0.03	-0.050			
0.1247	7983.51	4.0170	4.0168	-0.8545	25.00	-0.03	-0.050			
0.1256	8038.52	4.0160	4.0160	-0.8551	25.00	-0.03	-0.050			
0.1265	8093.22	4.0150	4.0150	-0.8529	25.01	-0.02	-0.050			
0.1273	8147.76	4.0140	4.0139	-0.8498	25.01	-0.02	-0.050			
0.1281	8201.40	4.0130	4.0130	-0.8523	25.00	-0.03	-0.050			
0.1290	8255.59	4.0120	4.0120	-0.8544	25.00	-0.03	-0.050			
0.1298	8310.15	4.0110	4.0110	-0.8531	25.01	-0.02	-0.050			
0.1307	8364.20	4.0100	4.0101	-0.8540	25.01	-0.02	-0.050			
0.1315	8418.96	4.0090	4.0089	-0.8540	25.00	-0.03	-0.050			
0.1324	8473.05	4.0080	4.0079	-0.8537	25.00	-0.03	-0.050			
0.1332	8527.13	4.0070	4.0068	-0.8574	25.01	-0.02	-0.050			
0.1341	8581.98	4.0060	4.0060	-0.8583	25.01	-0.02	-0.050			
0.1349	8636.62	4.0050	4.0050	-0.8592	25.01	-0.02	-0.050			
0.1358	8692.10	4.0040	4.0038	-0.8604	25.00	-0.03	-0.050			
0.1367	8746.79	4.0030	4.0030	-0.8632	24.99	-0.04	-0.050			
0.1375	8802.94	4.0020	4.0023	-0.8648	25.00	-0.03	-0.050			
0.1384	8858.81	4.0010	4.0010	-0.8655	25.01	-0.02	-0.050			
0.1393	8914.02	4.0000	3.9999	-0.8690	25.00	-0.03	-0.050			
0.1401	8968.97	3.9990	3.9990	-0.8741	25.00	-0.03	-0.050			
0.1410	9024.53	3.9980	3.9979	-0.8779	24.99	-0.04	-0.050			
0.1419	9081.45	3.9970	3.9971	-0.8792	24.99	-0.04	-0.050			
0.1428	9137.85	3.9960	3.9958	-0.8806	25.00	-0.03	-0.050			
0.1437	9194.61	3.9950	3.9951	-0.8821	25.00	-0.03	-0.050			
0.1446	9251.40	3.9940	3.9939	-0.8836	25.00	-0.03	-0.050			
0.1454	9306.66	3.9930	3.9931	-0.8849	24.99	-0.04	-0.050			
0.1463	9364.33	3.9920	3.9918	-0.8846	25.00	-0.03	-0.050			
0.1472	9422.07	3.9910	3.9908	-0.8888	25.00	-0.03	-0.050			
0.1481	9479.14	3.9900	3.9898	-0.8901	25.00	-0.03	-0.050			
0.1490	9535.95	3.9890	3.9893	-0.8898	25.01	-0.02	-0.050			
0.1499	9593.11	3.9880	3.9883	-0.8915	25.01	-0.02	-0.050			
0.1508	9650.27	3.9870	3.9868	-0.8897	25.00	-0.03	-0.050			
0.1517	9707.75	3.9860	3.9863	-0.8884	25.00	-0.03	-0.050			
0.1526	9765.61	3.9850	3.9849	-0.8901	25.01	-0.02	-0.050			
0.1535	9822.48	3.9840	3.9841	-0.8894	25.01	-0.02	-0.050			
0.1544	9879.48	3.9830	3.9832	-0.8880	25.02	-0.01	-0.050			
0.1553	9936.44	3.9820	3.9817	-0.8865	25.03	0.00	-0.050			
0.1561	9992.72	3.9810	3.9812	-0.8858	25.03	0.00	-0.050			
0.1570	10048.97	3.9800	3.9800	-0.8841	25.03	-0.00	-0.050			
0.1579	10103.47	3.9790	3.9791	-0.8869	25.02	-0.01	-0.050			
0.1588	10160.66	3.9780	3.9781	-0.8867	25.03	0.00	-0.050			
0.1597	10217.89	3.9770	3.9770	-0.8892	25.04	0.01	-0.050			
0.1605	10275.08	3.9760	3.9760	-0.8894	25.05	0.02	-0.050	0.129	0.442	
0.1614	10331.74	3.9750	3.9750	-0.8933	25.05	0.02	-0.050			
0.1623	10388.41	3.9740	3.9741	-0.8925	25.04	0.01	-0.050			
0.1632	10446.24	3.9730	3.9729	-0.8936	25.04	0.01	-0.050			
0.1641	10503.09	3.9720	3.9719	-0.8941	25.03	0.00	-0.050			
0.1650	10560.79	3.9710	3.9710	-0.8949	25.04	0.01	-0.050			
0.1659	10618.45	3.9700	3.9699	-0.8969	25.05	0.02	-0.050			
0.1668	10675.78	3.9690	3.9694	-0.8991	25.04	0.01	-0.050			
0.1677	10733.43	3.9680	3.9678	-0.9008	25.04	0.01	-0.050			
0.1686	10791.41	3.9670	3.9671	-0.9022	25.04	0.01	-0.050			
0.1695	10848.75	3.9660	3.9659	-0.9074	25.05	0.02	-0.050			
0.1704	10906.56	3.9650	3.9650	-0.9074	25.04	0.01	-0.050			
0.1713	10964.56	3.9640	3.9642	-0.9103	25.04	0.01	-0.050			
0.1722	11023.80	3.9630	3.9629	-0.9122	25.03	0.00	-0.050			
0.1732	11081.64	3.9620	3.9621	-0.9130	25.04	0.01	-0.050			
0.1741	11140.27	3.9610	3.9609	-0.9147	25.03	0.00	-0.050			
0.1750	11197.71	3.9600	3.9599	-0.9174	25.03	0.00	-0.050			
0.1759	11256.72	3.9590	3.9592	-0.9169	25.02	-0.01	-0.050			
0.1768	11316.87	3.9580	3.9581	-0.9177	25.03	-0.00	-0.050			
0.1778	11376.27	3.9570	3.9566	-0.9198	25.02	-0.01	-0.050			
0.1787	11435.59	3.9560	3.9563	-0.9206	25.02	-0.01	-0.050			
0.1796	11494.37	3.9550	3.9550	-0.9208	25.02	-0.01	-0.050			
0.1805	11553.44	3.9540	3.9540	-0.9206	25.02	-0.01	-0.050			
0.1815	11613.66	3.9530	3.9532	-0.9227	25.03	-0.00	-0.050			
0.1824	11672.40	3.9520	3.9518	-0.9215	25.02	-0.01	-0.050			
0.1833	11731.27	3.9510	3.9510	-0.9214	25.01	-0.02	-0.050			
0.1842	11790.21	3.9500	3.9502	-0.9198	25.02	-0.01	-0.050			
0.1851	11848.97	3.9490	3.9489	-0.9180	25.02	-0.01	-0.050			
0.1861	11907.81	3.9480	3.9478	-0.9162	25.01	-0.02	-0.050			
0.1870	11965.62	3.9470	3.9470	-0.9185	25.00	-0.03	-0.050			
0.1879	12023.64	3.9460	3.9461	-0.9168	25.01	-0.02	-0.050			
0.1888	12082.14	3.9450	3.9451	-0.9208	25.01	-0.02	-0.050			
0.1897	12141.00	3.9440	3.9440	-0.9211	25.02	-0.01	-0.050			
0.1906	12200.28	3.9430	3.9429	-0.9209	25.02	-0.01	-0.050			
0.1916	12259.57	3.9420	3.9419	-0.9233	25.00	-0.03	-0.050			
0.1925	12317.99	3.9410	3.9410	-0.9227	25.01	-0.02	-0.050			
0.1934	12377.17	3.9400	3.9399	-0.9232	25.02	-0.01	-0.050			
0.1943	12435.77	3.9390	3.9388	-0.9291	25.01	-0.02	-0.050			
0.1952	12495.81	3.9380	3.9377	-0.9341	25.00	-0.03	-0.050			
0.1962	12554.88	3.9370	3.9371	-0.9332	25.01	-0.02	-0.050			
0.1971	12615.17	3.9360	3.9359	-0.9347	25.01	-0.02	-0.050			
0.1980	12674.86	3.9350	3.9353	-0.9378	25.02	-0.01	-0.050			
0.1990	12735.83	3.9340	3.9340	-0.9381	25.00	-0.03	-0.050			
0.1999	12796.05	3.9330	3.9330	-0.9395	25.00	-0.03	-0.050	0.384	0.478	
0.2009	12856.23	3.9320	3.9319	-0.9416	25.00	-0.03	-0.050			
0.2018	12916.40	3.9310	3.9309	-0.9436	25.02	-0.01	-0.050			
0.2028	12977.67	3.9300	3.9299	-0.9433	25.01	-0.02	-0.050			
0.2037	13038.59	3.9290	3.9291	-0.9441	25.01	-0.02	-0.050			
0.2047	13099.41	3.9280	3.9280	-0.9412	25.01	-0.02	-0.050			
0.2056	13158.65	3.9270	3.9269	-0.9421	25.01	-0.02	-0.050			
0.2066	13219.69	3.9260	3.9260	-0.9437	25.01	-0.02	-0.050			
0.2075	13280.12	3.9250	3.9252	-0.9434	25.00	-0.03	-0.050			
0.2084	13340.35	3.9240	3.9238	-0.9462	25.00	-0.03	-0.050			
0.2094	13401.50	3.9230	3.9231	-0.9464	25.00	-0.03	-0.050			
0.2103	13461.31	3.9220	3.9221	-0.9461	25.01	-0.02	-0.050			
0.2113	13521.15	3.9210	3.9213	-0.9478	25.00	-0.03	-0.050			
0.2122	13581.47	3.9200	3.9202	-0.9483	25.00	-0.03	-0.050			
0.2131	13641.25	3.9190	3.9189	-0.9480	25.00	-0.03	-0.050			
0.2141	13702.50	3.9180	3.9177	-0.9509	25.01	-0.02	-0.050			
0.2151	13763.86	3.9170	3.9171	-0.9524	25.01	-0.02	-0.050			
0.2160	13824.92	3.9160	3.9161	-0.9546	25.01	-0.02	-0.050			
0.2170	13886.41	3.9150	3.9149	-0.9550	25.00	-0.03	-0.050			
0.2179	13947.09	3.9140	3.9139	-0.9574	25.01	-0.02	-0.050			
0.2189	14009.46	3.9130	3.9129	-0.9552	25.02	-0.01	-0.050			
0.2199	14070.78	3.9120	3.9122	-0.9553	25.03	0.00	-0.050	0.369	0.457	
0.2208	14132.49	3.9110	3.9112	-0.9549	25.02	-0.01	-0.050			
0.2218	14194.45	3.9100	3.9100	-0.9569	25.02	-0.01	-0.050			
0.2228	14256.09	3.9090	3.9090	-0.9588	25.02	-0.01	-0.050			
0.2237	14316.97	3.9080	3.9080	-0.9561	25.03	0.00	-0.050			
0.2246	14377.47	3.9070	3.9069	-0.9542	25.03	0.00	-0.050			
0.2256	14439.03	3.9060	3.9060	-0.9547	25.03	0.00	-0.050			
0.2266	14500.14	3.9050	3.9048	-0.9541	25.04	0.01	-0.050			
0.2275	14559.85	3.9040	3.9042	-0.9545	25.04	0.01	-0.050			
0.2284	14620.66	3.9030	3.9029	-0.9552	25.05	0.02	-0.050			
0.2294	14681.21	3.9020	3.9019	-0.9562	25.05	0.02	-0.050			
0.2303	14742.05	3.9010	3.9009	-0.9566	25.05	0.02	-0.050			
0.2313	14803.98	3.9000	3.9000	-0.9574	25.04	0.01	-0.050			
0.2323	14865.23	3.8990	3.8989	-0.9579	25.05	0.02	-0.050			
0.2332	14927.12	3.8980	3.8979	-0.9581	25.04	0.01	-0.050			
0.2342	14988.72	3.8970	3.8972	-0.9591	25.04	0.01	-0.050			
0.2352	15049.94	3.8960	3.8960	-0.9587	25.04	0.01	-0.050			
0.2361	15111.42	3.8950	3.8950	-0.9597	25.04	0.01	-0.050			
0.2371	15173.15	3.8940	3.8941	-0.9597	25.04	0.01	-0.050			
0.2380	15234.54	3.8930	3.8930	-0.9665	25.03	-0.00	-0.050			
0.2390	15296.64	3.8920	3.8922	-0.9675	25.03	-0.00	-0.050			
0.2400	15357.80	3.8910	3.8912	-0.9674	25.03	0.00	-0.050			
0.2409	15419.86	3.8900	3.8899	-0.9667	25.03	0.00	-0.050			
0.2419	15481.97	3.8890	3.8888	-0.9659	25.02	-0.01	-0.050			
0.2429	15544.23	3.8880	3.8881	-0.9667	25.02	-0.01	-0.050			
0.2438	15605.72	3.8870	3.8870	-0.9681	25.03	-0.00	-0.050			
0.2448	15667.65	3.8860	3.8858	-0.9713	25.02	-0.01	-0.050			
0.2458	15729.01	3.8850	3.8850	-0.9717	25.02	-0.01	-0.050			
0.2467	15790.96	3.8840	3.8838	-0.9706	25.02	-0.01	-0.050			
0.2477	15854.57	3.8830	3.8832	-0.9687	25.02	-0.01	-0.050			
0.2487	15916.71	3.8820	3.8821	-0.9713	25.02	-0.01	-0.050			
0.2497	15979.05	3.8810	3.8810	-0.9717	25.01	-0.02	-0.050			
0.2507	16041.63	3.8800	3.8799	-0.9730	25.00	-0.03	-0.050			
0.2516	16103.90	3.8790	3.8789	-0.9732	25.01	-0.02	-0.050			
0.2526	16166.41	3.8780	3.8778	-0.9733	25.01	-0.02	-0.050			
0.2536	16229.56	3.8770	3.8770	-0.9740	25.01	-0.02	-0.050			
0.2545	16290.45	3.8760	3.8760	-0.9744	25.00	-0.03	-0.050			
0.2555	16352.47	3.8750	3.8751	-0.9730	25.01	-0.02	-0.050			
0.2565	16414.37	3.8740	3.8739	-0.9744	25.01	-0.02	-0.050			
0.2574	16475.21	3.8730	3.8728	-0.9752	25.00	-0.03	-0.050			
0.2584	16537.97	3.8720	3.8724	-0.9787	25.00	-0.03	-0.050			
0.2594	16601.63	3.8710	3.8710	-0.9807	25.00	-0.03	-0.050			
0.2604	16664.86	3.8700	3.8701	-0.9815	25.01	-0.02	-0.050	0.215	0.488	
0.2614	16728.03	3.8690	3.8691	-0.9817	25.01	-0.02	-0.050			
0.2624	16790.85	3.8680	3.8678	-0.9826	25.00	-0.03	-0.050			
0.2633	16853.31	3.8670	3.8669	-0.9814	25.00	-0.03	-0.050			
0.2643	16916.67	3.8660	3.8660	-0.9826	25.01	-0.02	-0.050			
0.2653	16979.65	3.8650	3.8650	-0.9858	25.00	-0.03	-0.050			
0.2663	17043.20	3.8640	3.8638	-0.9876	25.00	-0.03	-0.050			
0.2673	17106.98	3.8630	3.8633	-0.9909	25.00	-0.03	-0.050			
0.2683	17169.82	3.8620	3.8621	-0.9880	25.01	-0.02	-0.050			
0.2693	17233.95	3.8610	3.8608	-0.9886	25.00	-0.03	-0.050			
0.2703	17297.20	3.8600	3.8598	-0.9886	25.00	-0.03	-0.050			
0.2712	17359.50	3.8590	3.8589	-0.9899	25.00	-0.03	-0.050			
0.2722	17422.57	3.8580	3.8579	-0.9939	25.01	-0.02	-0.050			
0.2732	17486.45	3.8570	3.8570	-0.9933	25.01	-0.02	-0.050			
0.2742	17550.74	3.8560	3.8559	-0.9885	25.00	-0.03	-0.050			
0.2752	17614.12	3.8550	3.8551	-0.9891	25.00	-0.03	-0.050			
0.2762	17677.02	3.8540	3.8539	-0.9907	25.01	-0.02	-0.050			
0.2772	17739.97	3.8530	3.8532	-0.9929	25.01	-0.02	-0.050			
0.2782	17804.27	3.8520	3.8516	-0.9962	25.00	-0.03	-0.050			
0.2792	17868.27	3.8510	3.8511	-0.9986	25.00	-0.03	-0.050			
0.2802	17932.80	3.8500	3.8499	-0.9984	25.01	-0.02	-0.050	0.313	0.465	
0.2812	17996.20	3.8490	3.8491	-0.9982	25.02	-0.01	-0.050			
0.2822	18060.74	3.8480	3.8482	-0.9960	25.01	-0.02	-0.050			
0.2832	18124.39	3.8470	3.8470	-0.9956	25.01	-0.02	-0.050			
0.2842	18188.57	3.8460	3.8459	-0.9934	25.01	-0.02	-0.050			
0.2852	18251.58	3.8450	3.8450	-0.9918	25.02	-0.01	-0.050			
0.2862	18315.66	3.8440	3.8441	-0.9933	25.02	-0.01	-0.050			
0.2872	18378.54	3.8430	3.8432	-0.9937	25.03	-0.00	-0.050			
0.2882	18443.46	3.8420	3.8420	-0.9927	25.02	-0.01	-0.050			
0.2892	18507.23	3.8410	3.8410	-0.9891	25.02	-0.01	-0.050			
0.2902	18569.89	3.8400	3.8399	-0.9876	25.02	-0.01	-0.050			
0.2911	18632.47	3.8390	3.8392	-0.9852	25.04	0.01	-0.050			
0.2921	18696.30	3.8380	3.8377	-0.9839	25.04	0.01	-0.050			
0.2931	18759.98	3.8370	3.8370	-0.9842	25.03	0.00	-0.050			
0.2941	18822.93	3.8360	3.8358	-0.9839	25.04	0.01	-0.050			
0.2951	18885.01	3.8350	3.8351	-0.9834	25.04	0.01	-0.050			
0.2960	18946.34	3.8340	3.8341	-0.9793	25.04	0.01	-0.050			
0.2970	19009.26	3.8330	3.8332	-0.9776	25.05	0.02	-0.050			
0.2980	19072.14	3.8320	3.8319	-0.9776	25.05	0.02	-0.050			
0.2990	19134.73	3.8310	3.8309	-0.9773	25.05	0.02	-0.050			
0.3000	19197.82	3.8300	3.8302	-0.9748	25.05	0.02	-0.050			
0.3009	19260.01	3.8290	3.8290	-0.9756	25.05	0.02	-0.050			
0.3019	19322.50	3.8280	3.8278	-0.9758	25.05	0.02	-0.050			
0.3029	19384.89	3.8270	3.8269	-0.9737	25.04	0.01	-0.050			
0.3039	19447.90	3.8260	3.8262	-0.9720	25.04	0.01	-0.050			
0.3048	19509.91	3.8250	3.8251	-0.9681	25.04	0.01	-0.050			
0.3058	19571.71	3.8240	3.8241	-0.9664	25.03	0.00	-0.050			
0.3068	19634.06	3.8230	3.8230	-0.9648	25.03	0.00	-0.050			
0.3078	19696.51	3.8220	3.8220	-0.9646	25.03	0.00	-0.050			
0.3087	19758.63	3.8210	3.8210	-0.9630	25.04	0.01	-0.050			
0.3097	19819.26	3.8200	3.8199	-0.9585	25.03	-0.00	-0.050			
0.3106	19880.41	3.8190	3.8191	-0.9580	25.02	-0.01	-0.050			
0.3116	19942.72	3.8180	3.8179	-0.9539	25.03	-0.00	-0.050			
0.3125	20003.11	3.8170	3.8171	-0.9496	25.03	0.00	-0.050			
0.3135	20063.73	3.8160	3.8159	-0.9450	25.02	-0.01	-0.050			
0.3144	20124.18	3.8150	3.8149	-0.9421	25.02	-0.01	-0.050			
0.3154	20184.49	3.8140	3.8139	-0.9410	25.02	-0.01	-0.050			
0.3163	20245.05	3.8130	3.8130	-0.9387	25.02	-0.01	-0.050			
0.3173	20304.49	3.8120	3.8120	-0.9334	25.02	-0.01	-0.050			
0.3182	20365.07	3.8110	3.8109	-0.9281	25.01	-0.02	-0.050			
0.3191	20424.93	3.8100	3.8099	-0.9233	25.02	-0.01	-0.050			
0.3201	20484.08	3.8090	3.8091	-0.9185	25.02	-0.01	-0.050	0.344	0.482	
0.3210	20543.04	3.8080	3.8081	-0.9125	25.01	-0.02	-0.050			
0.3219	20601.14	3.8070	3.8069	-0.9081	25.02	-0.01	-0.050			
0.3228	20659.75	3.8060	3.8060	-0.9042	25.01	-0.02	-0.050			
0.3237	20716.94	3.8050	3.8051	-0.8979	25.02	-0.01	-0.050			
0.3246	20774.50	3.8040	3.8043	-0.8909	25.02	-0.01	-0.050			
0.3255	20831.41	3.8030	3.8031	-0.8832	25.01	-0.02	-0.050			
0.3264	20888.07	3.8020	3.8020	-0.8757	25.01	-0.02	-0.050			
0.3272	20943.87	3.8010	3.8008	-0.8667	25.01	-0.02	-0.050			
0.3281	20999.20	3.8000	3.7999	-0.8606	25.02	-0.01	-0.050			
0.3290	21054.24	3.7990	3.7992	-0.8534	25.01	-0.02	-0.050			
0.3298	21109.02	3.7980	3.7978	-0.8492	25.01	-0.02	-0.050			
0.3307	21163.37	3.7970	3.7971	-0.8421	25.01	-0.02	-0.050			
0.3315	21215.40	3.7960	3.7960	-0.8365	25.01	-0.02	-0.050			
0.3323	21268.43	3.7950	3.7950	-0.8302	25.01	-0.02	-0.050			
0.3331	21320.97	3.7940	3.7941	-0.8230	25.00	-0.03	-0.050			
0.3340	21373.73	3.7930	3.7929	-0.8188	24.99	-0.04	-0.050			
0.3348	21426.67	3.7920	3.7919	-0.8116	25.00	-0.03	-0.050			
0.3356	21478.72	3.7910	3.7910	-0.8056	25.00	-0.03	-0.050			
0.3364	21529.64	3.7900	3.7899	-0.7993	25.01	-0.02	-0.050			
0.3372	21580.25	3.7890	3.7889	-0.7947	25.00	-0.03	-0.050			
0.3380	21630.15	3.7880	3.7880	-0.7903	25.00	-0.03	-0.050			
0.3388	21680.60	3.7870	3.7869	-0.7841	24.99	-0.04	-0.050			
0.3395	21731.00	3.7860	3.7861	-0.7781	25.00	-0.03	-0.050			
0.3403	21781.12	3.7850	3.7850	-0.7727	25.01	-0.02	-0.050	0.138	0.470	
0.3411	21830.61	3.7840	3.7839	-0.7670	24.99	-0.04	-0.050			
0.3419	21879.71	3.7830	3.7829	-0.7643	25.00	-0.03	-0.050			
0.3426	21928.17	3.7820	3.7818	-0.7600	24.99	-0.04	-0.050			
0.3434	21976.03	3.7810	3.7811	-0.7541	25.01	-0.02	-0.050			
0.3441	22024.39	3.7800	3.7798	-0.7499	25.01	-0.02	-0.050			
0.3449	22071.30	3.7790	3.7790	-0.7453	25.00	-0.03	-0.050			
0.3456	22118.60	3.7780	3.7780	-0.7403	25.00	-0.03	-0.050			
0.3463	22165.07	3.7770	3.7770	-0.7369	25.00	-0.03	-0.050			
0.3471	22211.80	3.7760	3.7757	-0.7315	25.00	-0.03	-0.050			
0.3478	22259.10	3.7750	3.7748	-0.7305	24.99	-0.04	-0.050			
0.3485	22305.77	3.7740	3.7739	-0.7291	25.01	-0.02	-0.050			
0.3493	22352.66	3.7730	3.7729	-0.7258	25.01	-0.02	-0.050			
0.3500	22398.88	3.7720	3.7721	-0.7232	25.01	-0.02	-0.050			
0.3507	22444.15	3.7710	3.7710	-0.7214	25.01	-0.02	-0.050			
0.3514	22489.98	3.7700	3.7699	-0.7206	25.01	-0.02	-0.050			
0.3521	22536.06	3.7690	3.7693	-0.7165	25.01	-0.02	-0.050			
0.3528	22581.79	3.7680	3.7680	-0.7153	25.02	-0.01	-0.050			
0.3536	22628.18	3.7670	3.7669	-0.7134	25.03	-0.00	-0.050			
0.3543	22674.34	3.7660	3.7661	-0.7142	25.02	-0.01	-0.050			
0.3550	22719.74	3.7650	3.7650	-0.7130	25.02	-0.01	-0.050			
0.3557	22764.14	3.7640	3.7641	-0.7119	25.03	-0.00	-0.050			
0.3564	22808.43	3.7630	3.7629	-0.7118	25.03	0.00	-0.050			
0.3571	22852.87	3.7620	3.7620	-0.7148	25.03	0.00	-0.050			
0.3578	22898.89	3.7610	3.7611	-0.7167	25.03	0.00	-0.050			
0.3585	22944.61	3.7600	3.7603	-0.7196	25.03	0.00	-0.050			
0.3592	22989.65	3.7590	3.7591	-0.7223	25.03	0.00	-0.050			
0.3599	23036.33	3.7580	3.7578	-0.7260	25.03	0.00	-0.050			
0.3607	23082.01	3.7570	3.7569	-0.7312	25.04	0.01	-0.050			
0.3614	23128.56	3.7560	3.7559	-0.7353	25.04	0.01	-0.050			
0.3621	23176.12	3.7550	3.7548	-0.7406	25.04	0.01	-0.050			
0.3629	23223.49	3.7540	3.7542	-0.7441	25.04	0.01	-0.050			
0.3636	23271.12	3.7530	3.7531	-0.7492	25.04	0.01	-0.050			
0.3644	23319.79	3.7520	3.7521	-0.7538	25.04	0.01	-0.050			
0.3651	23367.75	3.7510	3.7509	-0.7587	25.05	0.02	-0.050			
0.3659	23416.47	3.7500	3.7500	-0.7650	25.03	0.00	-0.050			
0.3667	23465.93	3.7490	3.7491	-0.7729	25.03	0.00	-0.050			
0.3674	23516.27	3.7480	3.7479	-0.7795	25.03	0.00	-0.050			
0.3682	23565.96	3.7470	3.7469	-0.7842	25.04	0.01	-0.050			
0.3690	23615.99	3.7460	3.7462	-0.7889	25.03	0.00	-0.050			
0.3698	23666.01	3.7450	3.7450	-0.7942	25.03	-0.00	-0.050			
0.3706	23716.51	3.7440	3.7439	-0.8017	25.02	-0.01	-0.050			
0.3714	23766.99	3.7430	3.7430	-0.8099	25.02	-0.01	-0.050			
0.3722	23818.94	3.7420	3.7419	-0.8173	25.02	-0.01	-0.050			
0.3730	23871.48	3.7410	3.7411	-0.8279	25.02	-0.01	-0.050			
0.3738	23924.54	3.7400	3.7400	-0.8371	25.01	-0.02	-0.050			
0.3746	23977.22	3.7390	3.7392	-0.8470	25.00	-0.03	-0.050			
0.3755	24031.41	3.7380	3.7381	-0.8570	25.01	-0.02	-0.050			
0.3764	24086.84	3.7370	3.7369	-0.8649	25.01	-0.02	-0.050			
0.3772	24142.31	3.7360	3.7359	-0.8766	25.01	-0.02	-0.050			
0.3781	24199.07	3.7350	3.7350	-0.8883	25.00	-0.03	-0.050			
0.3790	24256.39	3.7340	3.7342	-0.8994	25.01	-0.02	-0.050			
0.3799	24313.93	3.7330	3.7330	-0.9103	25.00	-0.03	-0.050	0.520	0.411	
0.3808	24373.03	3.7320	3.7319	-0.9212	24.99	-0.04	-0.050			
0.3818	24432.56	3.7310	3.7313	-0.9321	24.99	-0.04	-0.050			
0.3827	24492.56	3.7300	3.7299	-0.9417	24.99	-0.04	-0.050			
0.3836	24553.30	3.7290	3.7289	-0.9527	25.00	-0.03	-0.050			
0.3846	24614.28	3.7280	3.7282	-0.9643	24.99	-0.04	-0.050			
0.3856	24676.55	3.7270	3.7269	-0.9759	24.98	-0.05	-0.050			
0.3865	24738.51	3.7260	3.7262	-0.9883	24.98	-0.05	-0.050			
0.3875	24802.24	3.7250	3.7251	-0.9988	24.98	-0.05	-0.050			
0.3885	24866.50	3.7240	3.7240	-1.0083	24.98	-0.05	-0.050			
0.3896	24932.60	3.7230	3.7229	-1.0182	24.99	-0.04	-0.050			
0.3906	24997.35	3.7220	3.7220	-1.0308	24.97	-0.06	-0.050			
0.3916	25063.19	3.7210	3.7210	-1.0409	24.97	-0.06	-0.050			
0.3927	25130.10	3.7200	3.7200	-1.0564	24.98	-0.05	-0.050			
0.3937	25197.05	3.7190	3.7190	-1.0683	24.98	-0.05	-0.050			
0.3948	25265.16	3.7180	3.7180	-1.0823	24.98	-0.05	-0.050			
0.3959	25335.06	3.7170	3.7170	-1.0985	24.96	-0.07	-0.050			
0.3970	25405.04	3.7160	3.7162	-1.1133	24.97	-0.06	-0.050			
0.3981	25477.14	3.7150	3.7151	-1.1253	24.97	-0.06	-0.050			
0.3992	25549.35	3.7140	3.7139	-1.1399	24.97	-0.06	-0.050			
0.4004	25623.29	3.7130	3.7128	-1.1524	24.96	-0.07	-0.050	0.435	0.498	
0.4015	25696.45	3.7120	3.7122	-1.1711	24.97	-0.06	-0.050			
0.4027	25771.99	3.7110	3.7109	-1.1859	24.96	-0.07	-0.050			
0.4039	25849.32	3.7100	3.7101	-1.2002	24.97	-0.06	-0.050			
0.4051	25925.66	3.7090	3.7091	-1.2159	24.96	-0.07	-0.050			
0.4063	26003.97	3.7080	3.7081	-1.2302	24.97	-0.06	-0.050			
0.4075	26082.89	3.7070	3.7070	-1.2484	24.97	-0.06	-0.050			
0.4088	26163.68	3.7060	3.7061	-1.2639	24.97	-0.06	-0.050			
0.4101	26246.47	3.7050	3.7048	-1.2801	24.97	-0.06	-0.050			
0.4114	26329.00	3.7040	3.7039	-1.2958	24.98	-0.05	-0.050			
0.4127	26412.52	3.7030	3.7029	-1.3084	24.97	-0.06	-0.050			
0.4140	26495.24	3.7020	3.7024	-1.3245	24.97	-0.06	-0.050			
0.4153	26580.62	3.7010	3.7011	-1.3405	24.99	-0.04	-0.050			
0.4167	26666.73	3.7000	3.6999	-1.3549	24.97	-0.06	-0.050			
0.4180	26754.86	3.6990	3.6990	-1.3686	24.97	-0.06	-0.050			
0.4194	26842.86	3.6980	3.6979	-1.3840	24.97	-0.06	-0.050			
0.4208	26931.10	3.6970	3.6971	-1.4037	24.99	-0.04	-0.050	0.104	0.520	
0.4222	27021.98	3.6960	3.6959	-1.4195	24.99	-0.04	-0.050			
0.4237	27114.37	3.6950	3.6948	-1.4347	24.99	-0.04	-0.050			
0.4251	27206.70	3.6940	3.6939	-1.4463	25.00	-0.03	-0.050			
0.4266	27300.02	3.6930	3.6930	-1.4601	25.01	-0.02	-0.050			
0.4280	27393.27	3.6920	3.6921	-1.4713	25.01	-0.02	-0.050			
0.4295	27488.29	3.6910	3.6909	-1.4891	25.02	-0.01	-0.050			
0.4310	27583.61	3.6900	3.6901	-1.5062	25.02	-0.01	-0.050			
0.4325	27679.13	3.6890	3.6891	-1.5229	25.01	-0.02	-0.050			
0.4340	27776.70	3.6880	3.6882	-1.5404	25.03	-0.00	-0.050			
0.4356	27875.55	3.6870	3.6872	-1.5556	25.01	-0.02	-0.050			
0.4371	27976.37	3.6860	3.6860	-1.5740	25.00	-0.03	-0.050			
0.4387	28076.62	3.6850	3.6850	-1.5937	25.01	-0.02	-0.050			
0.4403	28178.66	3.6840	3.6839	-1.6081	25.00	-0.03	-0.050	0.210	0.494	
0.4419	28280.78	3.6830	3.6830	-1.6314	25.00	-0.03	-0.050			
0.4435	28385.32	3.6820	3.6821	-1.6482	25.00	-0.03	-0.050			
0.4452	28491.25	3.6810	3.6810	-1.6722	24.98	-0.05	-0.050			
0.4469	28598.73	3.6800	3.6801	-1.6949	24.99	-0.04	-0.050			
0.4486	28708.21	3.6790	3.6792	-1.7156	24.98	-0.05	-0.050			
0.4503	28818.71	3.6780	3.6781	-1.7335	24.98	-0.05	-0.050			
0.4520	28929.44	3.6770	3.6771	-1.7587	24.98	-0.05	-0.050			
0.4538	29044.40	3.6760	3.6761	-1.7840	24.97	-0.06	-0.050			
0.4556	29159.62	3.6750	3.6750	-1.8035	24.98	-0.05	-0.050			
0.4574	29274.65	3.6740	3.6738	-1.8322	24.97	-0.06	-0.050			
0.4592	29391.74	3.6730	3.6731	-1.8549	24.98	-0.05	-0.050			
0.4611	29510.58	3.6720	3.6720	-1.8786	24.97	-0.06	-0.050	0.443	0.489	
0.4630	29631.10	3.6710	3.6712	-1.9034	24.97	-0.06	-0.050			
0.4649	29755.26	3.6700	3.6701	-1.9210	24.97	-0.06	-0.050			
0.4668	29877.98	3.6690	3.6689	-1.9509	24.98	-0.05	-0.050			
0.4688	30003.94	3.6680	3.6679	-1.9815	24.97	-0.06	-0.050			
0.4708	30130.11	3.6670	3.6670	-2.0093	24.98	-0.05	-0.050			
0.4728	30258.25	3.6660	3.6660	-2.0353	24.96	-0.07	-0.050			
0.4748	30389.75	3.6650	3.6649	-2.0629	24.98	-0.05	-0.050			
0.4769	30523.55	3.6640	3.6640	-2.0884	24.96	-0.07	-0.050			
0.4790	30658.47	3.6630	3.6632	-2.1133	24.97	-0.06	-0.050			
0.4812	30796.35	3.6620	3.6620	-2.1366	24.97	-0.06	-0.050	0.330	0.556	
0.4833	30934.37	3.6610	3.6611	-2.1587	24.98	-0.05	-0.050			
0.4855	31074.32	3.6600	3.6598	-2.1862	24.99	-0.04	-0.050			
0.4877	31214.34	3.6590	3.6590	-2.2133	24.99	-0.04	-0.050			
0.4899	31355.42	3.6580	3.6580	-2.2404	25.00	-0.03	-0.050			
0.4922	31499.57	3.6570	3.6571	-2.2661	25.00	-0.03	-0.050			
0.4945	31645.68	3.6560	3.6558	-2.2932	25.01	-0.02	-0.050			
0.4967	31791.41	3.6550	3.6552	-2.3221	25.02	-0.01	-0.050			
0.4990	31939.13	3.6540	3.6540	-2.3516	25.01	-0.02	-0.050			
0.5014	32089.88	3.6530	3.6531	-2.3847	25.02	-0.01	-0.050			
0.5038	32243.51	3.6520	3.6519	-2.4182	25.00	-0.03	-0.050			
0.5062	32399.33	3.6510	3.6509	-2.4511	25.00	-0.03	-0.050			
0.5087	32556.52	3.6500	3.6502	-2.4812	24.99	-0.04	-0.050			
0.5111	32713.57	3.6490	3.6492	-2.5086	24.98	-0.05	-0.050			
0.5137	32875.25	3.6480	3.6480	-2.5423	24.97	-0.06	-0.050			
0.5163	33040.49	3.6470	3.6469	-2.5712	24.97	-0.06	-0.050			
0.5189	33207.81	3.6460	3.6460	-2.6120	24.96	-0.07	-0.050			
0.5215	33376.49	3.6450	3.6451	-2.6413	24.97	-0.06	-0.050			
0.5242	33546.93	3.6440	3.6440	-2.6806	24.97	-0.06	-0.050			
0.5269	33719.70	3.6430	3.6432	-2.7145	24.96	-0.07	-0.050			
0.5296	33893.63	3.6420	3.6423	-2.7538	24.98	-0.05	-0.050			
0.5323	34069.40	3.6410	3.6411	-2.7875	24.97	-0.06	-0.050			
0.5351	34248.40	3.6400	3.6401	-2.8188	24.97	-0.06	-0.050			
0.5380	34430.14	3.6390	3.6389	-2.8587	24.97	-0.06	-0.050			
0.5409	34615.06	3.6380	3.6379	-2.8926	24.97	-0.06	-0.050	0.235	0.419	
0.5438	34800.63	3.6370	3.6370	-2.9222	24.96	-0.07	-0.050			
0.5467	34990.27	3.6360	3.6363	-2.9436	24.97	-0.06	-0.050			
0.5497	35180.65	3.6350	3.6351	-2.9815	24.98	-0.05	-0.050			
0.5527	35373.01	3.6340	3.6344	-3.0137	25.00	-0.03	-0.050			
0.5558	35570.26	3.6330	3.6330	-3.0309	25.00	-0.03	-0.050			
0.5589	35767.39	3.6320	3.6320	-3.0479	25.00	-0.03	-0.050			
0.5620	35966.04	3.6310	3.6310	-3.0627	25.01	-0.02	-0.050			
0.5650	36162.89	3.6300	3.6300	-3.0737	25.02	-0.01	-0.050			
0.5682	36362.52	3.6290	3.6291	-3.0726	25.02	-0.01	-0.050			
0.5712	36557.60	3.6280	3.6277	-3.0742	25.02	-0.01	-0.050			
0.5743	36754.77	3.6270	3.6270	-3.0825	25.01	-0.02	-0.050			
0.5774	36951.12	3.6260	3.6263	-3.0931	25.00	-0.03	-0.050			
0.5805	37148.89	3.6250	3.6248	-3.1081	24.99	-0.04	-0.050	0.156	0.466	
0.5836	37347.83	3.6240	3.6242	-3.1121	24.99	-0.04	-0.050			
0.5867	37548.04	3.6230	3.6230	-3.1267	24.99	-0.04	-0.050			
0.5898	37748.11	3.6220	3.6222	-3.1266	24.98	-0.05	-0.050			
0.5930	37950.83	3.6210	3.6208	-3.1189	24.98	-0.05	-0.050			
0.5961	38152.26	3.6200	3.6201	-3.1110	24.98	-0.05	-0.050			
0.5993	38356.08	3.6190	3.6189	-3.0965	24.97	-0.06	-0.050	0.270	0.406	
0.6025	38560.87	3.6180	3.6183	-3.0753	24.96	-0.07	-0.050			
0.6056	38758.02	3.6170	3.6170	-3.0463	24.97	-0.06	-0.050			
0.6087	38955.93	3.6160	3.6160	-3.0136	24.97	-0.06	-0.050			
0.6117	39151.15	3.6150	3.6151	-2.9704	24.98	-0.05	-0.050			
0.6147	39342.15	3.6140	3.6139	-2.9220	24.98	-0.05	-0.050			
0.6176	39529.42	3.6130	3.6131	-2.8633	24.97	-0.06	-0.050			
0.6205	39711.18	3.6120	3.6119	-2.8002	24.99	-0.04	-0.050			
0.6233	39888.06	3.6110	3.6110	-2.7344	25.00	-0.03	-0.050			
0.6259	40060.23	3.6100	3.6098	-2.6798	25.00	-0.03	-0.050			
0.6286	40228.39	3.6090	3.6089	-2.6205	25.01	-0.02	-0.050			
0.6311	40392.11	3.6080	3.6080	-2.5632	25.03	0.00	-0.050			
0.6336	40552.22	3.6070	3.6071	-2.5095	25.03	-0.00	-0.050			
0.6361	40708.83	3.6060	3.6063	-2.4593	25.02	-0.01	-0.050			
0.6385	40862.46	3.6050	3.6050	-2.4161	25.01	-0.02	-0.050			
0.6409	41015.66	3.6040	3.6040	-2.3715	25.01	-0.02	-0.050	0.224	0.581	
0.6432	41161.64	3.6030	3.6030	-2.3253	25.00	-0.03	-0.050			
0.6454	41307.87	3.6020	3.6018	-2.2975	25.00	-0.03	-0.050			
0.6477	41449.83	3.6010	3.6011	-2.2631	25.00	-0.03	-0.050			
0.6498	41588.54	3.6000	3.6000	-2.2385	25.00	-0.03	-0.050			
0.6520	41727.28	3.5990	3.5989	-2.2094	25.00	-0.03	-0.050			
0.6542	41867.10	3.5980	3.5976	-2.1907	25.00	-0.03	-0.050			
0.6563	42005.72	3.5970	3.5971	-2.1712	25.00	-0.03	-0.050			
0.6585	42142.75	3.5960	3.5962	-2.1525	25.00	-0.03	-0.050			
0.6606	42279.62	3.5950	3.5952	-2.1397	25.00	-0.03	-0.050	0.212	0.484	
0.6628	42416.11	3.5940	3.5939	-2.1270	25.00	-0.03	-0.050			
0.6649	42552.51	3.5930	3.5929	-2.1145	24.99	-0.04	-0.050			
0.6670	42687.12	3.5920	3.5921	-2.0985	25.01	-0.02	-0.050			
0.6691	42820.68	3.5910	3.5909	-2.0852	25.00	-0.03	-0.050			
0.6712	42954.50	3.5900	3.5901	-2.0750	25.01	-0.02	-0.050			
0.6733	43088.06	3.5890	3.5890	-2.0589	25.00	-0.03	-0.050			
0.6753	43220.23	3.5880	3.5880	-2.0439	25.00	-0.03	-0.050			
0.6774	43352.01	3.5870	3.5868	-2.0265	25.00	-0.03	-0.050			
0.6794	43481.79	3.5860	3.5861	-2.0088	25.01	-0.02	-0.050			
0.6814	43611.09	3.5850	3.5848	-1.9855	25.01	-0.02	-0.050	0.247	0.585	
0.6834	43739.13	3.5840	3.5839	-1.9632	25.01	-0.02	-0.050			
0.6854	43864.15	3.5830	3.5831	-1.9396	25.01	-0.02	-0.050			
0.6873	43985.95	3.5820	3.5823	-1.9192	25.03	-0.00	-0.050			
0.6892	44108.53	3.5810	3.5810	-1.8996	25.03	-0.00	-0.050			
0.6911	44228.11	3.5800	3.5800	-1.8796	25.05	0.02	-0.050			
0.6930	44349.71	3.5790	3.5791	-1.8621	25.04	0.01	-0.050			
0.6948	44468.23	3.5780	3.5780	-1.8398	25.05	0.02	-0.050			
0.6966	44584.68	3.5770	3.5769	-1.8180	25.05	0.02	-0.050			
0.6984	44698.64	3.5760	3.5760	-1.7931	25.07	0.04	-0.050			
0.7002	44811.89	3.5750	3.5749	-1.7794	25.06	0.03	-0.050			
0.7019	44924.58	3.5740	3.5739	-1.7606	25.07	0.04	-0.050			
0.7037	45035.76	3.5730	3.5729	-1.7434	25.05	0.02	-0.050			
0.7054	45144.37	3.5720	3.5722	-1.7298	25.07	0.04	-0.050			
0.7071	45254.24	3.5710	3.5709	-1.7152	25.06	0.03	-0.050			
0.7088	45362.36	3.5700	3.5702	-1.7076	25.06	0.03	-0.050			
0.7105	45470.59	3.5690	3.5690	-1.7009	25.05	0.02	-0.050			
0.7122	45578.10	3.5680	3.5680	-1.6939	25.07	0.04	-0.050			
0.7138	45685.84	3.5670	3.5672	-1.6874	25.05	0.02	-0.050			
0.7155	45792.29	3.5660	3.5659	-1.6835	25.05	0.02	-0.050			
0.7172	45899.69	3.5650	3.5651	-1.6789	25.05	0.02	-0.050			
0.7188	46005.68	3.5640	3.5639	-1.6737	25.05	0.02	-0.050			
0.7205	46111.75	3.5630	3.5628	-1.6697	25.05	0.02	-0.050	0.443	0.545	
0.7222	46217.98	3.5620	3.5622	-1.6637	25.05	0.02	-0.050			
0.7238	46325.60	3.5610	3.5608	-1.6646	25.04	0.01	-0.050			
0.7255	46432.22	3.5600	3.5600	-1.6662	25.03	0.00	-0.050			
0.7272	46540.87	3.5590	3.5590	-1.6621	25.04	0.01	-0.050			
0.7289	46648.51	3.5580	3.5578	-1.6556	25.03	0.00	-0.050			
0.7306	46755.52	3.5570	3.5570	-1.6455	25.03	0.00	-0.050			
0.7322	46861.78	3.5560	3.5561	-1.6374	25.04	0.01	-0.050			
0.7339	46967.44	3.5550	3.5550	-1.6277	25.03	0.00	-0.050			
0.7355	47072.65	3.5540	3.5541	-1.6192	25.03	0.00	-0.050			
0.7371	47176.59	3.5530	3.5530	-1.6035	25.02	-0.01	-0.050			
0.7388	47280.70	3.5520	3.5521	-1.5850	25.03	0.00	-0.050			
0.7404	47383.00	3.5510	3.5510	-1.5686	25.03	0.00	-0.050			
0.7419	47483.01	3.5500	3.5501	-1.5461	25.04	0.01	-0.050			
0.7435	47582.57	3.5490	3.5488	-1.5277	25.02	-0.01	-0.050			
0.7450	47681.12	3.5480	3.5479	-1.5067	25.03	-0.00	-0.050			
0.7465	47777.03	3.5470	3.5470	-1.4869	25.03	0.00	-0.050			
0.7480	47870.77	3.5460	3.5459	-1.4620	25.02	-0.01	-0.050			
0.7495	47965.79	3.5450	3.5451	-1.4356	25.03	0.00	-0.050			
0.7509	48056.87	3.5440	3.5439	-1.4101	25.03	0.00	-0.050			
0.7523	48147.05	3.5430	3.5429	-1.3838	25.02	-0.01	-0.050			
0.7537	48234.84	3.5420	3.5419	-1.3584	25.03	0.00	-0.050			
0.7550	48320.24	3.5410	3.5411	-1.3318	25.04	0.01	-0.050			
0.7563	48404.61	3.5400	3.5400	-1.3062	25.04	0.01	-0.050			
0.7576	48489.26	3.5390	3.5390	-1.2815	25.04	0.01	-0.050			
0.7589	48569.80	3.5380	3.5378	-1.2555	25.05	0.02	-0.050			
0.7601	48648.32	3.5370	3.5371	-1.2318	25.05	0.02	-0.050	0.417	0.432	
0.7613	48724.51	3.5360	3.5361	-1.2076	25.05	0.02	-0.050			
0.7625	48800.22	3.5350	3.5346	-1.1845	25.06	0.03	-0.050			
0.7637	48874.68	3.5340	3.5342	-1.1625	25.06	0.03	-0.050			
0.7648	48947.95	3.5330	3.5328	-1.1452	25.06	0.03	-0.050			
0.7659	49019.37	3.5320	3.5320	-1.1262	25.07	0.04	-0.050			
0.7670	49088.50	3.5310	3.5310	-1.1098	25.07	0.04	-0.050			
0.7681	49157.50	3.5300	3.5301	-1.0971	25.07	0.04	-0.050			
0.7692	49225.73	3.5290	3.5287	-1.0831	25.07	0.04	-0.050			
0.7702	49293.36	3.5280	3.5280	-1.0726	25.07	0.04	-0.050			
0.7713	49360.18	3.5270	3.5269	-1.0618	25.07	0.04	-0.050			
0.7723	49428.47	3.5260	3.5260	-1.0535	25.06	0.03	-0.050			
0.7734	49496.46	3.5250	3.5249	-1.0453	25.06	0.03	-0.050			
0.7744	49561.02	3.5240	3.5240	-1.0373	25.06	0.03	-0.050			
0.7754	49626.32	3.5230	3.5230	-1.0353	25.05	0.02	-0.050			
0.7764	49692.56	3.5220	3.5219	-1.0300	25.05	0.02	-0.050			
0.7775	49758.03	3.5210	3.5211	-1.0249	25.06	0.03	-0.050			
0.7785	49824.09	3.5200	3.5202	-1.0210	25.05	0.02	-0.050			
0.7795	49890.04	3.5190	3.5190	-1.0162	25.05	0.02	-0.050			
0.7805	49954.56	3.5180	3.5180	-1.0088	25.04	0.01	-0.050			
0.7815	50019.12	3.5170	3.5170	-1.0026	25.05	0.02	-0.050			
0.7826	50083.59	3.5160	3.5161	-0.9985	25.04	0.01	-0.050			
0.7836	50147.52	3.5150	3.5148	-0.9934	25.04	0.01	-0.050			
0.7846	50211.93	3.5140	3.5140	-0.9863	25.04	0.01	-0.050			
0.7855	50275.04	3.5130	3.5131	-0.9749	25.04	0.01	-0.050			
0.7865	50337.21	3.5120	3.5119	-0.9674	25.03	0.00	-0.050			
0.7875	50398.95	3.5110	3.5108	-0.9575	25.03	0.00	-0.050			
0.7884	50460.34	3.5100	3.5099	-0.9496	25.04	0.01	-0.050			
0.7894	50521.19	3.5090	3.5091	-0.9426	25.03	-0.00	-0.050			
0.7903	50581.69	3.5080	3.5079	-0.9329	25.02	-0.01	-0.050			
0.7913	50641.52	3.5070	3.5069	-0.9268	25.02	-0.01	-0.050			
0.7922	50700.11	3.5060	3.5061	-0.9179	25.03	0.00	-0.050			
0.7931	50757.20	3.5050	3.5049	-0.9136	25.03	-0.00	-0.050			
0.7940	50813.31	3.5040	3.5041	-0.9025	25.02	-0.01	-0.050			
0.7948	50869.54	3.5030	3.5030	-0.8992	25.03	-0.00	-0.050			
0.7957	50926.37	3.5020	3.5020	-0.8976	25.03	0.00	-0.050			
0.7966	50982.18	3.5010	3.5011	-0.8991	25.03	0.00	-0.050			
0.7975	51038.33	3.5000	3.5000	-0.9025	25.03	0.00	-0.050			
0.7983	51094.37	3.4990	3.4991	-0.9039	25.03	0.00	-0.050			
0.7992	51150.31	3.4980	3.4979	-0.9122	25.03	0.00	-0.050			
0.8001	51205.87	3.4970	3.4970	-0.9212	25.03	0.00	-0.050			
0.8010	51262.57	3.4960	3.4960	-0.9365	25.03	0.00	-0.050	0.128	0.445	
0.8019	51319.45	3.4950	3.4952	-0.9547	25.03	0.00	-0.050			
0.8028	51378.72	3.4940	3.4940	-0.9775	25.02	-0.01	-0.050			
0.8037	51436.80	3.4930	3.4931	-1.0080	25.02	-0.01	-0.050			
0.8047	51497.71	3.4920	3.4921	-1.0445	25.02	-0.01	-0.050			
0.8057	51561.74	3.4910	3.4912	-1.0849	25.02	-0.01	-0.050			
0.8066	51624.75	3.4900	3.4901	-1.1323	25.02	-0.01	-0.050			
0.8077	51695.27	3.4890	3.4889	-1.1851	25.01	-0.02	-0.050			
0.8089	51769.34	3.4880	3.4881	-1.2445	25.01	-0.02	-0.050			
0.8101	51844.01	3.4870	3.4870	-1.3084	25.02	-0.01	-0.050			
0.8114	51928.20	3.4860	3.4859	-1.3763	25.01	-0.02	-0.050			
0.8128	52016.54	3.4850	3.4849	-1.4431	25.00	-0.03	-0.050			
0.8142	52109.99	3.4840	3.4838	-1.5208	25.02	-0.01	-0.050			
0.8158	52208.23	3.4830	3.4831	-1.5975	25.01	-0.02	-0.050			
0.8174	52314.49	3.4820	3.4819	-1.6741	25.02	-0.01	-0.050			
0.8192	52428.65	3.4810	3.4811	-1.7417	25.01	-0.02	-0.050			
0.8210	52545.76	3.4800	3.4800	-1.8142	25.02	-0.01	-0.050	0.279	0.513	
0.8229	52668.31	3.4790	3.4788	-1.8774	25.02	-0.01	-0.050			
0.8249	52795.62	3.4780	3.4779	-1.9354	25.04	0.01	-0.050			
0.8270	52928.64	3.4770	3.4770	-1.9827	25.04	0.01	-0.050			
0.8291	53063.00	3.4760	3.4760	-2.0240	25.05	0.02	-0.050			
0.8313	53200.42	3.4750	3.4750	-2.0536	25.04	0.01	-0.050			
0.8334	53338.70	3.4740	3.4740	-2.0761	25.06	0.03	-0.050			
0.8356	53478.47	3.4730	3.4731	-2.0899	25.05	0.02	-0.050			
0.8378	53617.82	3.4720	3.4719	-2.0966	25.06	0.03	-0.050			
0.8399	53755.58	3.4710	3.4710	-2.0937	25.05	0.02	-0.050	0.469	0.621	
0.8421	53894.28	3.4700	3.4700	-2.0916	25.05	0.02	-0.050			
0.8442	54030.66	3.4690	3.4691	-2.0738	25.05	0.02	-0.050			
0.8464	54166.52	3.4680	3.4680	-2.0501	25.05	0.02	-0.050			
0.8484	54300.23	3.4670	3.4671	-2.0254	25.05	0.02	-0.050			
0.8505	54430.42	3.4660	3.4659	-1.9963	25.03	0.00	-0.050			
0.8525	54558.22	3.4650	3.4650	-1.9610	25.04	0.01	-0.050			
0.8544	54683.88	3.4640	3.4635	-1.9236	25.02	-0.01	-0.050			
0.8564	54807.32	3.4630	3.4630	-1.8859	25.04	0.01	-0.050			
0.8583	54928.95	3.4620	3.4621	-1.8496	25.02	-0.01	-0.050			
0.8601	55046.64	3.4610	3.4610	-1.8039	25.03	-0.00	-0.050	0.404	0.604	
0.8619	55161.98	3.4600	3.4603	-1.7580	25.02	-0.01	-0.050			
0.8637	55276.00	3.4590	3.4588	-1.7137	25.03	-0.00	-0.050			
0.8654	55384.82	3.4580	3.4579	-1.6656	25.02	-0.01	-0.050			
0.8671	55492.28	3.4570	3.4571	-1.6154	25.03	0.00	-0.050			
0.8687	55595.04	3.4560	3.4562	-1.5625	25.02	-0.01	-0.050			
0.8702	55694.42	3.4550	3.4551	-1.5118	25.02	-0.01	-0.050			
0.8717	55790.25	3.4540	3.4541	-1.4565	25.02	-0.01	-0.050			
0.8731	55881.15	3.4530	3.4533	-1.4003	25.02	-0.01	-0.050			
0.8745	55967.53	3.4520	3.4521	-1.3449	25.02	-0.01	-0.050			
0.8758	56051.49	3.4510	3.4511	-1.2924	25.01	-0.02	-0.050			
0.8771	56132.77	3.4500	3.4499	-1.2413	25.02	-0.01	-0.050			
0.8783	56211.48	3.4490	3.4490	-1.1918	25.01	-0.02	-0.050			
0.8794	56284.10	3.4480	3.4480	-1.1422	25.00	-0.03	-0.050			
0.8805	56353.27	3.4470	3.4469	-1.0890	25.00	-0.03	-0.050	0.363	0.751	
0.8816	56420.10	3.4460	3.4459	-1.0426	25.02	-0.01	-0.050			
0.8826	56484.44	3.4450	3.4451	-0.9992	25.01	-0.02	-0.050			
0.8835	56544.51	3.4440	3.4439	-0.9547	25.00	-0.03	-0.050			
0.8844	56602.02	3.4430	3.4429	-0.9128	25.01	-0.02	-0.050			
0.8853	56659.31	3.4420	3.4420	-0.8774	25.02	-0.01	-0.050			
0.8861	56711.66	3.4410	3.4411	-0.8399	25.02	-0.01	-0.050			
0.8869	56763.44	3.4400	3.4400	-0.8079	25.01	-0.02	-0.050			
0.8877	56811.42	3.4390	3.4390	-0.7692	25.01	-0.02	-0.050			
0.8884	56858.87	3.4380	3.4379	-0.7406	25.02	-0.01	-0.050			
0.8891	56904.60	3.4370	3.4370	-0.7127	25.03	-0.00	-0.050			
0.8898	56947.40	3.4360	3.4360	-0.6835	25.03	0.00	-0.050			
0.8905	56988.92	3.4350	3.4351	-0.6550	25.03	-0.00	-0.050			
0.8911	57030.64	3.4340	3.4341	-0.6339	25.02	-0.01	-0.050			
0.8917	57069.17	3.4330	3.4329	-0.6108	25.02	-0.01	-0.050			
0.8923	57105.29	3.4320	3.4319	-0.5880	25.02	-0.01	-0.050			
0.8928	57141.70	3.4310	3.4310	-0.5666	25.03	0.00	-0.050			
0.8934	57176.38	3.4300	3.4300	-0.5498	25.04	0.01	-0.050			
0.8939	57210.27	3.4290	3.4290	-0.5334	25.04	0.01	-0.050			
0.8944	57242.87	3.4280	3.4280	-0.5144	25.05	0.02	-0.050			
0.8949	57274.67	3.4270	3.4270	-0.4985	25.04	0.01	-0.050			
0.8954	57305.86	3.4260	3.4260	-0.4826	25.04	0.01	-0.050			
0.8959	57334.83	3.4250	3.4250	-0.4675	25.05	0.02	-0.050			
0.8963	57363.86	3.4240	3.4238	-0.4542	25.05	0.02	-0.050			
0.8968	57392.20	3.4230	3.4229	-0.4407	25.05	0.02	-0.050			
0.8972	57418.88	3.4220	3.4220	-0.4302	25.05	0.02	-0.050			
0.8976	57445.59	3.4210	3.4212	-0.4181	25.06	0.03	-0.050			
0.8980	57470.57	3.4200	3.4201	-0.4078	25.06	0.03	-0.050			
0.8984	57496.39	3.4190	3.4191	-0.3991	25.06	0.03	-0.050			
0.8988	57521.13	3.4180	3.4180	-0.3916	25.06	0.03	-0.050			
0.8992	57545.77	3.4170	3.4171	-0.3833	25.05	0.02	-0.050			
0.8995	57569.70	3.4160	3.4159	-0.3761	25.05	0.02	-0.050			
0.8999	57593.53	3.4150	3.4148	-0.3686	25.06	0.03	-0.050			
0.9003	57616.06	3.4140	3.4141	-0.3623	25.06	0.03	-0.050			
0.9006	57638.55	3.4130	3.4128	-0.3550	25.06	0.03	-0.050	0.401	0.551	
0.9009	57660.38	3.4120	3.4121	-0.3479	25.07	0.04	-0.050			
0.9013	57682.48	3.4110	3.4113	-0.3427	25.07	0.04	-0.050			
0.9016	57703.48	3.4100	3.4098	-0.3368	25.07	0.04	-0.050			
0.9019	57724.67	3.4090	3.4092	-0.3319	25.07	0.04	-0.050			
0.9023	57746.00	3.4080	3.4079	-0.3270	25.07	0.04	-0.050			
0.9026	57767.17	3.4070	3.4070	-0.3234	25.07	0.04	-0.050			
0.9029	57787.70	3.4060	3.4061	-0.3187	25.07	0.04	-0.050			
0.9033	57808.28	3.4050	3.4049	-0.3145	25.07	0.04	-0.050			
0.9036	57828.18	3.4040	3.4040	-0.3093	25.07	0.04	-0.050			
0.9039	57847.27	3.4030	3.4031	-0.3066	25.07	0.04	-0.050			
0.9042	57866.82	3.4020	3.4021	-0.3024	25.08	0.05	-0.050			
0.9045	57885.65	3.4010	3.4010	-0.2996	25.08	0.05	-0.050			
0.9047	57903.87	3.4000	3.4000	-0.2943	25.08	0.05	-0.050			
0.9050	57922.53	3.3990	3.3991	-0.2915	25.08	0.05	-0.050			
0.9053	57940.79	3.3980	3.3981	-0.2880	25.08	0.05	-0.050			
0.9056	57959.04	3.3970	3.3970	-0.2857	25.08	0.05	-0.050			
0.9059	57977.13	3.3960	3.3959	-0.2829	25.08	0.05	-0.050			
0.9062	57995.16	3.3950	3.3947	-0.2804	25.08	0.05	-0.050			
0.9065	58013.01	3.3940	3.3938	-0.2776	25.08	0.05	-0.050			
0.9067	58030.70	3.3930	3.3930	-0.2751	25.07	0.04	-0.050			
0.9070	58048.03	3.3920	3.3922	-0.2719	25.07	0.04	-0.050			
0.9073	58065.36	3.3910	3.3911	-0.2696	25.07	0.04	-0.050			
0.9075	58082.71	3.3900	3.3901	-0.2677	25.07	0.04	-0.050			
0.9078	58099.91	3.3890	3.3890	-0.2647	25.07	0.04	-0.050			
0.9081	58116.83	3.3880	3.3880	-0.2623	25.07	0.04	-0.050			
0.9083	58133.53	3.3870	3.3870	-0.2596	25.08	0.05	-0.050			
0.9086	58150.16	3.3860	3.3860	-0.2589	25.08	0.05	-0.050			
0.9089	58166.65	3.3850	3.3851	-0.2563	25.08	0.05	-0.050			
0.9091	58182.47	3.3840	3.3841	-0.2555	25.08	0.05	-0.050			
0.9094	58198.52	3.3830	3.3831	-0.2530	25.08	0.05	-0.050			
0.9096	58214.65	3.3820	3.3820	-0.2511	25.08	0.05	-0.050			
0.9098	58230.12	3.3810	3.3809	-0.2479	25.08	0.05	-0.050			
0.9101	58245.95	3.3800	3.3800	-0.2465	25.08	0.05	-0.050			
0.9103	58261.70	3.3790	3.3790	-0.2446	25.08	0.05	-0.050			
0.9106	58277.32	3.3780	3.3780	-0.2432	25.08	0.05	-0.050			
0.9108	58292.78	3.3770	3.3768	-0.2417	25.07	0.04	-0.050			
0.9111	58308.03	3.3760	3.3759	-0.2408	25.07	0.04	-0.050			
0.9113	58323.40	3.3750	3.3751	-0.2396	25.07	0.04	-0.050			
0.9115	58338.53	3.3740	3.3739	-0.2381	25.07	0.04	-0.050			
0.9118	58353.65	3.3730	3.3732	-0.2374	25.07	0.04	-0.050			
0.9120	58368.89	3.3720	3.3721	-0.2367	25.07	0.04	-0.050			
0.9123	58384.01	3.3710	3.3711	-0.2357	25.07	0.04	-0.050			
0.9125	58399.33	3.3700	3.3700	-0.2337	25.08	0.05	-0.050			
0.9127	58414.41	3.3690	3.3690	-0.2327	25.08	0.05	-0.050			
0.9130	58429.26	3.3680	3.3678	-0.2313	25.08	0.05	-0.050			
0.9132	58444.29	3.3670	3.3669	-0.2286	25.07	0.04	-0.050			
0.9134	58459.21	3.3660	3.3658	-0.2274	25.07	0.04	-0.050			
0.9137	58473.70	3.3650	3.3649	-0.2253	25.07	0.04	-0.050			
0.9139	58487.45	3.3640	3.3640	-0.2242	25.07	0.04	-0.050			
0.9141	58501.75	3.3630	3.3631	-0.2228	25.07	0.04	-0.050			
0.9143	58515.73	3.3620	3.3622	-0.2222	25.07	0.04	-0.050			
0.9145	58529.68	3.3610	3.3611	-0.2205	25.07	0.04	-0.050			
0.9147	58543.76	3.3600	3.3602	-0.2195	25.07	0.04	-0.050			
0.9150	58558.32	3.3590	3.3591	-0.2186	25.06	0.03	-0.050			
0.9152	58572.27	3.3580	3.3580	-0.2171	25.06	0.03	-0.050			
0.9154	58586.11	3.3570	3.3568	-0.2156	25.06	0.03	-0.050			
0.9156	58599.80	3.3560	3.3558	-0.2140	25.07	0.04	-0.050			
0.9158	58613.30	3.3550	3.3547	-0.2130	25.08	0.05	-0.050			
0.9160	58626.89	3.3540	3.3538	-0.2118	25.08	0.05	-0.050			
0.9162	58639.98	3.3530	3.3530	-0.2099	25.08	0.05	-0.050			
0.9165	58653.47	3.3520	3.3521	-0.2087	25.08	0.05	-0.050			
0.9167	58666.79	3.3510	3.3512	-0.2077	25.08	0.05	-0.050			
0.9169	58679.95	3.3500	3.3501	-0.2066	25.08	0.05	-0.050			
0.9171	58693.18	3.3490	3.3492	-0.2056	25.07	0.04	-0.050			
0.9173	58706.31	3.3480	3.3482	-0.2047	25.07	0.04	-0.050			
0.9175	58719.79	3.3470	3.3471	-0.2044	25.07	0.04	-0.050			
0.9177	58732.59	3.3460	3.3457	-0.2039	25.06	0.03	-0.050			
0.9179	58745.60	3.3450	3.3449	-0.2029	25.06	0.03	-0.050			
0.9181	58758.68	3.3440	3.3439	-0.2020	25.06	0.03	-0.050			
0.9183	58771.20	3.3430	3.3431	-0.2022	25.06	0.03	-0.050			
0.9185	58783.42	3.3420	3.3421	-0.1999	25.06	0.03	-0.050			
0.9187	58796.21	3.3410	3.3410	-0.1998	25.06	0.03	-0.050			
0.9189	58809.57	3.3400	3.3400	-0.1981	25.06	0.03	-0.050			
0.9191	58822.20	3.3390	3.3390	-0.1975	25.07	0.04	-0.050			
0.9193	58834.82	3.3380	3.3380	-0.1969	25.07	0.04	-0.050			
0.9195	58847.40	3.3370	3.3369	-0.1963	25.07	0.04	-0.050			
0.9197	58860.20	3.3360	3.3359	-0.1946	25.07	0.04	-0.050			
0.9199	58873.14	3.3350	3.3351	-0.1947	25.07	0.04	-0.050			
0.9201	58885.56	3.3340	3.3340	-0.1934	25.07	0.04	-0.050			
0.9203	58897.62	3.3330	3.3330	-0.1932	25.07	0.04	-0.050			
0.9205	58909.90	3.3320	3.3319	-0.1921	25.07	0.04	-0.050			
0.9207	58922.17	3.3310	3.3310	-0.1912	25.07	0.04	-0.050	0.139	0.712	
0.9208	58934.34	3.3300	3.3301	-0.1904	25.07	0.04	-0.050			
0.9210	58946.64	3.3290	3.3289	-0.1898	25.07	0.04	-0.050			
0.9212	58958.76	3.3280	3.3277	-0.1888	25.07	0.04	-0.050			
0.9214	58970.81	3.3270	3.3269	-0.1878	25.07	0.04	-0.050			
0.9216	58982.59	3.3260	3.3261	-0.1869	25.06	0.03	-0.050			
0.9218	58994.53	3.3250	3.3251	-0.1861	25.06	0.03	-0.050			
0.9220	59006.41	3.3240	3.3239	-0.1853	25.06	0.03	-0.050			
0.9222	59018.00	3.3230	3.3228	-0.1836	25.06	0.03	-0.050			
0.9223	59029.73	3.3220	3.3218	-0.1830	25.07	0.04	-0.050			
0.9225	59041.42	3.3210	3.3211	-0.1824	25.07	0.04	-0.050			
0.9227	59052.79	3.3200	3.3202	-0.1812	25.07	0.04	-0.050			
0.9229	59064.20	3.3190	3.3191	-0.1814	25.07	0.04	-0.050			
0.9231	59075.81	3.3180	3.3181	-0.1812	25.07	0.04	-0.050			
0.9232	59087.40	3.3170	3.3170	-0.1810	25.07	0.04	-0.050			
0.9234	59099.52	3.3160	3.3159	-0.1810	25.07	0.04	-0.050			
0.9236	59111.08	3.3150	3.3151	-0.1803	25.07	0.04	-0.050			
0.9238	59122.60	3.3140	3.3140	-0.1797	25.07	0.04	-0.050			
0.9240	59134.14	3.3130	3.3130	-0.1791	25.07	0.04	-0.050			
0.9241	59145.57	3.3120	3.3119	-0.1785	25.07	0.04	-0.050			
0.9243	59156.97	3.3110	3.3110	-0.1778	25.07	0.04	-0.050			
0.9245	59168.02	3.3100	3.3100	-0.1764	25.07	0.04	-0.050			
0.9247	59179.30	3.3090	3.3089	-0.1760	25.07	0.04	-0.050			
0.9249	59190.67	3.3080	3.3079	-0.1752	25.06	0.03	-0.050			
0.9250	59201.87	3.3070	3.3071	-0.1747	25.06	0.03	-0.050			
0.9252	59213.27	3.3060	3.3062	-0.1746	25.06	0.03	-0.050			
0.9254	59224.47	3.3050	3.3051	-0.1738	25.06	0.03	-0.050			
0.9256	59235.57	3.3040	3.3040	-0.1730	25.06	0.03	-0.050			
0.9257	59246.74	3.3030	3.3029	-0.1725	25.06	0.03	-0.050			
0.9259	59257.76	3.3020	3.3019	-0.1717	25.06	0.03	-0.050			
0.9261	59268.67	3.3010	3.3010	-0.1709	25.06	0.03	-0.050			
0.9262	59279.58	3.3000	3.3000	-0.1701	25.06	0.03	-0.050			
0.9264	59290.57	3.2990	3.2991	-0.1695	25.06	0.03	-0.050			
0.9266	59301.39	3.2980	3.2980	-0.1686	25.06	0.03	-0.050			
0.9268	59312.04	3.2970	3.2970	-0.1680	25.06	0.03	-0.050			
0.9269	59322.46	3.2960	3.2961	-0.1663	25.06	0.03	-0.050			
0.9271	59333.09	3.2950	3.2948	-0.1658	25.06	0.03	-0.050			
0.9272	59343.68	3.2940	3.2941	-0.1652	25.06	0.03	-0.050			
0.9274	59354.29	3.2930	3.2931	-0.1644	25.07	0.04	-0.050			
0.9276	59364.96	3.2920	3.2920	-0.1642	25.07	0.04	-0.050			
0.9277	59375.44	3.2910	3.2910	-0.1635	25.07	0.04	-0.050			
0.9279	59385.88	3.2900	3.2899	-0.1627	25.07	0.04	-0.050			
0.9281	59396.30	3.2890	3.2889	-0.1619	25.07	0.04	-0.050			
0.9282	59406.60	3.2880	3.2880	-0.1610	25.06	0.03	-0.050			
0.9284	59416.88	3.2870	3.2870	-0.1603	25.06	0.03	-0.050			
0.9285	59427.12	3.2860	3.2860	-0.1596	25.06	0.03	-0.050			
0.9287	59437.26	3.2850	3.2850	-0.1590	25.06	0.03	-0.050			
0.9289	59447.41	3.2840	3.2840	-0.1583	25.06	0.03	-0.050			
0.9290	59457.52	3.2830	3.2830	-0.1576	25.06	0.03	-0.050			
0.9292	59467.59	3.2820	3.2820	-0.1569	25.06	0.03	-0.050			
0.9293	59477.14	3.2810	3.2810	-0.1570	25.06	0.03	-0.050			
0.9295	59487.18	3.2800	3.2801	-0.1568	25.06	0.03	-0.050			
0.9296	59497.20	3.2790	3.2791	-0.1565	25.06	0.03	-0.050			
0.9298	59507.21	3.2780	3.2780	-0.1562	25.06	0.03	-0.050			
0.9300	59516.85	3.2770	3.2771	-0.1557	25.06	0.03	-0.050			
0.9301	59526.82	3.2760	3.2761	-0.1558	25.06	0.03	-0.050			
0.9303	59536.79	3.2750	3.2749	-0.1558	25.06	0.03	-0.050			
0.9304	59546.76	3.2740	3.2738	-0.1558	25.06	0.03	-0.050			
0.9306	59556.91	3.2730	3.2729	-0.1547	25.06	0.03	-0.050			
0.9307	59566.80	3.2720	3.2719	-0.1545	25.06	0.03	-0.050			
0.9309	59576.69	3.2710	3.2709	-0.1544	25.06	0.03	-0.050			
0.9310	59586.56	3.2700	3.2698	-0.1542	25.06	0.03	-0.050			
0.9312	59596.96	3.2690	3.2689	-0.1535	25.06	0.03	-0.050			
0.9314	59606.77	3.2680	3.2680	-0.1529	25.06	0.03	-0.050			
0.9315	59616.54	3.2670	3.2671	-0.1523	25.06	0.03	-0.050			
0.9317	59626.27	3.2660	3.2662	-0.1517	25.06	0.03	-0.050			
0.9318	59636.50	3.2650	3.2651	-0.1519	25.06	0.03	-0.050			
0.9320	59646.02	3.2640	3.2640	-0.1512	25.06	0.03	-0.050			
0.9321	59655.67	3.2630	3.2630	-0.1504	25.06	0.03	-0.050			
0.9323	59665.26	3.2620	3.2622	-0.1495	25.06	0.03	-0.050			
0.9324	59675.10	3.2610	3.2610	-0.1490	25.05	0.02	-0.050			
0.9326	59684.02	3.2600	3.2600	-0.1492	25.05	0.02	-0.050			
0.9327	59693.54	3.2590	3.2592	-0.1486	25.05	0.02	-0.050			
0.9329	59703.03	3.2580	3.2580	-0.1479	25.05	0.02	-0.050			
0.9330	59711.92	3.2570	3.2570	-0.1465	25.05	0.02	-0.050			
0.9331	59721.59	3.2560	3.2560	-0.1457	25.06	0.03	-0.050			
0.9333	59730.91	3.2550	3.2549	-0.1453	25.06	0.03	-0.050			
0.9334	59740.19	3.2540	3.2539	-0.1449	25.06	0.03	-0.050			
0.9336	59749.25	3.2530	3.2529	-0.1441	25.06	0.03	-0.050			
0.9337	59758.47	3.2520	3.2520	-0.1439	25.06	0.03	-0.050			
0.9339	59767.97	3.2510	3.2509	-0.1428	25.06	0.03	-0.050			
0.9340	59777.10	3.2500	3.2499	-0.1422	25.07	0.04	-0.050			
0.9342	59786.44	3.2490	3.2489	-0.1423	25.07	0.04	-0.050			
0.9343	59795.53	3.2480	3.2481	-0.1416	25.07	0.04	-0.050			
0.9344	59804.57	3.2470	3.2472	-0.1409	25.07	0.04	-0.050			
0.9346	59813.64	3.2460	3.2461	-0.1398	25.07	0.04	-0.050			
0.9347	59822.57	3.2450	3.2452	-0.1390	25.07	0.04	-0.050			
0.9349	59831.86	3.2440	3.2441	-0.1389	25.06	0.03	-0.050			
0.9350	59840.72	3.2430	3.2431	-0.1378	25.06	0.03	-0.050			
0.9351	59849.21	3.2420	3.2420	-0.1375	25.06	0.03	-0.050			
0.9353	59857.99	3.2410	3.2409	-0.1366	25.06	0.03	-0.050			
0.9354	59866.62	3.2400	3.2399	-0.1356	25.06	0.03	-0.050			
0.9356	59875.27	3.2390	3.2388	-0.1348	25.06	0.03	-0.050			
0.9357	59883.88	3.2380	3.2378	-0.1340	25.06	0.03	-0.050			
0.9358	59892.00	3.2370	3.2370	-0.1346	25.06	0.03	-0.050			
0.9359	59900.07	3.2360	3.2361	-0.1326	25.06	0.03	-0.050			
0.9361	59908.56	3.2350	3.2352	-0.1326	25.06	0.03	-0.050			
0.9362	59917.05	3.2340	3.2339	-0.1326	25.06	0.03	-0.050			
0.9363	59925.53	3.2330	3.2331	-0.1326	25.06	0.03	-0.050			
0.9365	59934.15	3.2320	3.2323	-0.1320	25.06	0.03	-0.050			
0.9366	59942.57	3.2310	3.2308	-0.1318	25.06	0.03	-0.050			
0.9367	59951.01	3.2300	3.2298	-0.1317	25.06	0.03	-0.050			
0.9369	59959.43	3.2290	3.2289	-0.1316	25.06	0.03	-0.050			
0.9370	59967.85	3.2280	3.2280	-0.1315	25.06	0.03	-0.050			
0.9371	59976.40	3.2270	3.2270	-0.1307	25.06	0.03	-0.050			
0.9373	59984.86	3.2260	3.2262	-0.1307	25.06	0.03	-0.050			
0.9374	59993.22	3.2250	3.2252	-0.1304	25.07	0.04	-0.050			
0.9375	60001.55	3.2240	3.2242	-0.1300	25.07	0.04	-0.050			
0.9377	60009.86	3.2230	3.2230	-0.1297	25.07	0.04	-0.050			
0.9378	60018.49	3.2220	3.2220	-0.1297	25.07	0.04	-0.050			
0.9379	60026.78	3.2210	3.2212	-0.1291	25.07	0.04	-0.050			
0.9380	60035.02	3.2200	3.2199	-0.1285	25.07	0.04	-0.050			
0.9382	60043.23	3.2190	3.2188	-0.1280	25.07	0.04	-0.050			
0.9383	60051.40	3.2180	3.2181	-0.1274	25.07	0.04	-0.050			
0.9384	60059.64	3.2170	3.2171	-0.1269	25.07	0.04	-0.050			
0.9386	60067.74	3.2160	3.2160	-0.1262	25.07	0.04	-0.050			
0.9387	60075.80	3.2150	3.2150	-0.1256	25.07	0.04	-0.050			
0.9388	60083.81	3.2140	3.2139	-0.1249	25.07	0.04	-0.050			
0.9389	60091.78	3.2130	3.2129	-0.1242	25.07	0.04	-0.050			
0.9390	60099.13	3.2120	3.2121	-0.1243	25.06	0.03	-0.050			
0.9392	60107.08	3.2110	3.2111	-0.1241	25.06	0.03	-0.050			
0.9393	60115.02	3.2100	3.2102	-0.1239	25.06	0.03	-0.050			
0.9394	60122.94	3.2090	3.2091	-0.1237	25.06	0.03	-0.050			
0.9395	60131.10	3.2080	3.2079	-0.1228	25.06	0.03	-0.050			
0.9397	60138.96	3.2070	3.2069	-0.1225	25.06	0.03	-0.050			
0.9398	60146.79	3.2060	3.2060	-0.1222	25.05	0.02	-0.050			
0.9399	60154.59	3.2050	3.2047	-0.1218	25.05	0.02	-0.050			
0.9400	60162.38	3.2040	3.2036	-0.1214	25.05	0.02	-0.050			
0.9402	60170.14	3.2030	3.2029	-0.1211	25.05	0.02	-0.050			
0.9403	60177.86	3.2020	3.2020	-0.1209	25.05	0.02	-0.050			
0.9404	60185.58	3.2010	3.2009	-0.1206	25.05	0.02	-0.050			
0.9405	60193.29	3.2000	3.2000	-0.1202	25.05	0.02	-0.050			
0.9406	60200.97	3.1990	3.1991	-0.1199	25.06	0.03	-0.050			
0.9408	60208.63	3.1980	3.1982	-0.1195	25.06	0.03	-0.050	0.273	0.628	
0.9409	60216.34	3.1970	3.1969	-0.1193	25.06	0.03	-0.050			
0.9410	60223.97	3.1960	3.1959	-0.1189	25.06	0.03	-0.050			
0.9411	60231.57	3.1950	3.1951	-0.1185	25.06	0.03	-0.050			
0.9412	60239.14	3.1940	3.1938	-0.1181	25.06	0.03	-0.050			
0.9414	60246.69	3.1930	3.1930	-0.1178	25.06	0.03	-0.050			
0.9415	60254.40	3.1920	3.1921	-0.1175	25.06	0.03	-0.050			
0.9416	60261.66	3.1910	3.1908	-0.1175	25.06	0.03	-0.050			
0.9417	60269.17	3.1900	3.1899	-0.1172	25.06	0.03	-0.050			
0.9418	60276.66	3.1890	3.1892	-0.1168	25.06	0.03	-0.050			
0.9419	60283.70	3.1880	3.1882	-0.1155	25.06	0.03	-0.050			
0.9420	60291.09	3.1870	3.1869	-0.1155	25.06	0.03	-0.050			
0.9422	60298.48	3.1860	3.1858	-0.1155	25.06	0.03	-0.050			
0.9423	60306.10	3.1850	3.1848	-0.1148	25.06	0.03	-0.050			
0.9424	60313.44	3.1840	3.1840	-0.1146	25.06	0.03	-0.050			
0.9425	60320.77	3.1830	3.1831	-0.1144	25.06	0.03	-0.050			
0.9426	60328.48	3.1820	3.1818	-0.1147	25.06	0.03	-0.050			
0.9427	60335.81	3.1810	3.1809	-0.1143	25.06	0.03	-0.050			
0.9429	60343.34	3.1800	3.1799	-0.1133	25.06	0.03	-0.050			
0.9430	60350.58	3.1790	3.1790	-0.1127	25.06	0.03	-0.050			
0.9431	60357.77	3.1780	3.1781	-0.1121	25.06	0.03	-0.050			
0.9432	60365.02	3.1770	3.1769	-0.1116	25.05	0.02	-0.050			
0.9433	60372.14	3.1760	3.1757	-0.1109	25.05	0.02	-0.050			
0.9434	60379.22	3.1750	3.1750	-0.1103	25.05	0.02	-0.050			
0.9435	60386.04	3.1740	3.1742	-0.1102	25.05	0.02	-0.050			
0.9436	60393.07	3.1730	3.1732	-0.1097	25.05	0.02	-0.050			
0.9438	60400.07	3.1720	3.1721	-0.1091	25.05	0.02	-0.050			
0.9439	60407.10	3.1710	3.1712	-0.1087	25.05	0.02	-0.050			
0.9440	60414.04	3.1700	3.1702	-0.1081	25.05	0.02	-0.050			
0.9441	60420.94	3.1690	3.1689	-0.1076	25.05	0.02	-0.050			
0.9442	60427.55	3.1680	3.1678	-0.1078	25.05	0.02	-0.050			
0.9443	60434.44	3.1670	3.1668	-0.1074	25.05	0.02	-0.050			
0.9444	60441.30	3.1660	3.1661	-0.1070	25.05	0.02	-0.050			
0.9445	60447.69	3.1650	3.1650	-0.1059	25.05	0.02	-0.050			
0.9446	60454.47	3.1640	3.1639	-0.1058	25.06	0.03	-0.050			
0.9447	60461.23	3.1630	3.1629	-0.1057	25.06	0.03	-0.050			
0.9448	60468.21	3.1620	3.1618	-0.1050	25.06	0.03	-0.050			
0.9449	60474.92	3.1610	3.1608	-0.1048	25.06	0.03	-0.050			
0.9450	60481.61	3.1600	3.1599	-0.1045	25.07	0.04	-0.050			
0.9451	60488.29	3.1590	3.1590	-0.1042	25.07	0.04	-0.050			
0.9452	60494.95	3.1580	3.1581	-0.1040	25.07	0.04	-0.050			
0.9453	60501.60	3.1570	3.1570	-0.1037	25.07	0.04	-0.050			
0.9454	60508.09	3.1560	3.1560	-0.1039	25.07	0.04	-0.050			
0.9455	60514.73	3.1550	3.1549	-0.1037	25.07	0.04	-0.050			
0.9456	60521.51	3.1540	3.1540	-0.1038	25.07	0.04	-0.050			
0.9458	60528.15	3.1530	3.1532	-0.1036	25.07	0.04	-0.050			
0.9459	60534.77	3.1520	3.1522	-0.1033	25.07	0.04	-0.050			
0.9460	60541.38	3.1510	3.1510	-0.1031	25.07	0.04	-0.050			
0.9461	60548.01	3.1500	3.1501	-0.1027	25.07	0.04	-0.050			
0.9462	60554.58	3.1490	3.1490	-0.1024	25.07	0.04	-0.050			
0.9463	60561.06	3.1480	3.1479	-0.1020	25.06	0.03	-0.050			
0.9464	60567.58	3.1470	3.1469	-0.1018	25.06	0.03	-0.050			
0.9465	60574.09	3.1460	3.1459	-0.1015	25.06	0.03	-0.050			
0.9466	60580.58	3.1450	3.1448	-0.1013	25.06	0.03	-0.050			
0.9467	60587.05	3.1440	3.1439	-0.1010	25.05	0.02	-0.050			
0.9468	60593.61	3.1430	3.1429	-0.1004	25.05	0.02	-0.050			
0.9469	60600.04	3.1420	3.1421	-0.1001	25.05	0.02	-0.050			
0.9470	60606.44	3.1410	3.1411	-0.0998	25.05	0.02	-0.050			
0.9471	60612.81	3.1400	3.1401	-0.0994	25.05	0.02	-0.050			
0.9472	60619.16	3.1390	3.1391	-0.0991	25.05	0.02	-0.050			
0.9473	60625.49	3.1380	3.1381	-0.0988	25.05	0.02	-0.050			
0.9474	60631.91	3.1370	3.1370	-0.0981	25.05	0.02	-0.050			
0.9475	60638.48	3.1360	3.1359	-0.0985	25.05	0.02	-0.050			
0.9476	60644.76	3.1350	3.1350	-0.0979	25.05	0.02	-0.050			
0.9477	60651.01	3.1340	3.1340	-0.0973	25.05	0.02	-0.050			
0.9478	60657.22	3.1330	3.1330	-0.0967	25.05	0.02	-0.050			
0.9479	60663.39	3.1320	3.1319	-0.0961	25.05	0.02	-0.050			
0.9480	60669.52	3.1310	3.1309	-0.0955	25.05	0.02	-0.050			
0.9481	60675.22	3.1300	3.1300	-0.0951	25.05	0.02	-0.050			
0.9481	60681.29	3.1290	3.1290	-0.0948	25.06	0.03	-0.050			
0.9482	60687.35	3.1280	3.1281	-0.0944	25.06	0.03	-0.050			
0.9483	60693.38	3.1270	3.1270	-0.0941	25.06	0.03	-0.050			
0.9484	60699.39	3.1260	3.1260	-0.0938	25.06	0.03	-0.050			
0.9485	60705.39	3.1250	3.1251	-0.0935	25.06	0.03	-0.050			
0.9486	60711.27	3.1240	3.1241	-0.0935	25.06	0.03	-0.050			
0.9487	60717.14	3.1230	3.1231	-0.0930	25.06	0.03	-0.050			
0.9488	60723.08	3.1220	3.1220	-0.0928	25.06	0.03	-0.050			
0.9489	60729.01	3.1210	3.1208	-0.0926	25.06	0.03	-0.050			
0.9490	60734.93	3.1200	3.1199	-0.0924	25.07	0.04	-0.050			
0.9491	60740.84	3.1190	3.1189	-0.0922	25.07	0.04	-0.050			
0.9492	60746.73	3.1180	3.1180	-0.0920	25.07	0.04	-0.050			
0.9493	60752.48	3.1170	3.1170	-0.0917	25.07	0.04	-0.050			
0.9493	60758.34	3.1160	3.1161	-0.0916	25.07	0.04	-0.050			
0.9494	60764.20	3.1150	3.1151	-0.0915	25.07	0.04	-0.050			
0.9495	60770.05	3.1140	3.1141	-0.0914	25.07	0.04	-0.050			
0.9496	60775.90	3.1130	3.1130	-0.0913	25.07	0.04	-0.050			
0.9497	60781.73	3.1120	3.1119	-0.0912	25.07	0.04	-0.050			
0.9498	60787.57	3.1110	3.1109	-0.0911	25.07	0.04	-0.050			
0.9499	60793.46	3.1100	3.1100	-0.0910	25.07	0.04	-0.050			
0.9500	60799.41	3.1090	3.1090	-0.0906	25.07	0.04	-0.050			
0.9501	60805.20	3.1080	3.1080	-0.0904	25.07	0.04	-0.050			
0.9502	60810.98	3.1070	3.1071	-0.0902	25.07	0.04	-0.050			
0.9503	60816.75	3.1060	3.1060	-0.0900	25.07	0.04	-0.050			
0.9504	60822.50	3.1050	3.1049	-0.0897	25.07	0.04	-0.050			
0.9504	60828.30	3.1040	3.1039	-0.0896	25.06	0.03	-0.050			
0.9505	60834.10	3.1030	3.1030	-0.0892	25.06	0.03	-0.050			
0.9506	60839.80	3.1020	3.1020	-0.0889	25.06	0.03	-0.050			
0.9507	60845.47	3.1010	3.1010	-0.0886	25.06	0.03	-0.050			
0.9508	60851.13	3.1000	3.0999	-0.0883	25.06	0.03	-0.050			
0.9509	60856.77	3.0990	3.0989	-0.0880	25.05	0.02	-0.050			
0.9510	60862.39	3.0980	3.0981	-0.0876	25.05	0.02	-0.050			
0.9511	60868.14	3.0970	3.0972	-0.0875	25.05	0.02	-0.050			
0.9511	60873.59	3.0960	3.0960	-0.0873	25.05	0.02	-0.050			
0.9512	60879.17	3.0950	3.0950	-0.0869	25.05	0.02	-0.050			
0.9513	60884.72	3.0940	3.0940	-0.0866	25.05	0.02	-0.050			
0.9514	60890.25	3.0930	3.0930	-0.0863	25.05	0.02	-0.050			
0.9515	60895.77	3.0920	3.0920	-0.0860	25.06	0.03	-0.050			
0.9516	60901.26	3.0910	3.0910	-0.0857	25.06	0.03	-0.050			
0.9517	60906.73	3.0900	3.0900	-0.0853	25.06	0.03	-0.050			
0.9518	60912.03	3.0890	3.0890	-0.0849	25.06	0.03	-0.050			
0.9518	60917.48	3.0880	3.0882	-0.0846	25.06	0.03	-0.050			
0.9519	60922.89	3.0870	3.0871	-0.0844	25.06	0.03	-0.050			
0.9520	60928.28	3.0860	3.0860	-0.0841	25.06	0.03	-0.050			
0.9521	60933.66	3.0850	3.0849	-0.0839	25.06	0.03	-0.050			
0.9522	60939.02	3.0840	3.0839	-0.0836	25.06	0.03	-0.050			
0.9523	60944.36	3.0830	3.0829	-0.0834	25.06	0.03	-0.050			
0.9523	60949.69	3.0820	3.0819	-0.0831	25.06	0.03	-0.050			
0.9524	60955.00	3.0810	3.0809	-0.0829	25.06	0.03	-0.050			
0.9525	60960.29	3.0800	3.0799	-0.0826	25.06	0.03	-0.050			
0.9526	60965.58	3.0790	3.0789	-0.0824	25.06	0.03	-0.050			
0.9527	60970.84	3.0780	3.0779	-0.0822	25.06	0.03	-0.050			
0.9528	60976.09	3.0770	3.0772	-0.0819	25.06	0.03	-0.050			
0.9528	60981.35	3.0760	3.0760	-0.0817	25.06	0.03	-0.050			
0.9529	60986.57	3.0750	3.0750	-0.0814	25.07	0.04	-0.050			
0.9530	60991.79	3.0740	3.0740	-0.0812	25.07	0.04	-0.050			
0.9531	60996.97	3.0730	3.0730	-0.0809	25.07	0.04	-0.050			
0.9532	61002.14	3.0720	3.0720	-0.0806	25.07	0.04	-0.050			
0.9532	61007.29	3.0710	3.0710	-0.0804	25.07	0.04	-0.050			
0.9533	61012.43	3.0700	3.0700	-0.0801	25.07	0.04	-0.050			
0.9534	61017.54	3.0690	3.0690	-0.0798	25.08	0.05	-0.050			
0.9535	61022.64	3.0680	3.0680	-0.0795	25.08	0.05	-0.050			
0.9536	61027.72	3.0670	3.0671	-0.0793	25.08	0.05	-0.050			
0.9536	61032.82	3.0660	3.0660	-0.0789	25.08	0.05	-0.050			
0.9537	61037.86	3.0650	3.0650	-0.0786	25.08	0.05	-0.050			
0.9538	61042.89	3.0640	3.0640	-0.0784	25.08	0.05	-0.050			
0.9539	61047.89	3.0630	3.0630	-0.0781	25.08	0.05	-0.050			
0.9540	61052.88	3.0620	3.0620	-0.0778	25.08	0.05	-0.050			
0.9540	61057.85	3.0610	3.0610	-0.0775	25.08	0.05	-0.050			
0.9541	61062.86	3.0600	3.0600	-0.0773	25.08	0.05	-0.050			
0.9542	61067.63	3.0590	3.0590	-0.0772	25.08	0.05	-0.050			
0.9543	61072.57	3.0580	3.0580	-0.0770	25.08	0.05	-0.050			
0.9543	61077.49	3.0570	3.0570	-0.0768	25.08	0.05	-0.050			
0.9544	61082.39	3.0560	3.0561	-0.0766	25.08	0.05	-0.050			
0.9545	61087.29	3.0550	3.0550	-0.0764	25.08	0.05	-0.050			
0.9546	61092.05	3.0540	3.0540	-0.0760	25.08	0.05	-0.050			
0.9546	61096.91	3.0530	3.0530	-0.0759	25.08	0.05	-0.050			
0.9547	61101.83	3.0520	3.0520	-0.0756	25.08	0.05	-0.050			
0.9548	61106.67	3.0510	3.0510	-0.0754	25.07	0.04	-0.050			
0.9549	61111.49	3.0500	3.0500	-0.0752	25.07	0.04	-0.050			
0.9549	61116.30	3.0490	3.0490	-0.0750	25.07	0.04	-0.050			
0.9550	61121.09	3.0480	3.0479	-0.0748	25.07	0.04	-0.050			
0.9551	61125.88	3.0470	3.0469	-0.0747	25.07	0.04	-0.050			
0.9552	61130.63	3.0460	3.0461	-0.0745	25.07	0.04	-0.050			
0.9552	61135.39	3.0450	3.0452	-0.0743	25.07	0.04	-0.050			
0.9553	61140.14	3.0440	3.0440	-0.0741	25.07	0.04	-0.050			
0.9554	61144.88	3.0430	3.0430	-0.0739	25.07	0.04	-0.050			
0.9555	61149.61	3.0420	3.0420	-0.0737	25.07	0.04	-0.050			
0.9555	61154.32	3.0410	3.0410	-0.0735	25.07	0.04	-0.050			
0.9556	61159.02	3.0400	3.0400	-0.0734	25.07	0.04	-0.050			
0.9557	61163.82	3.0390	3.0389	-0.0733	25.07	0.04	-0.050			
0.9558	61168.50	3.0380	3.0379	-0.0731	25.07	0.04	-0.050			
0.9558	61173.12	3.0370	3.0369	-0.0729	25.07	0.04	-0.050			
0.9559	61177.78	3.0360	3.0360	-0.0727	25.07	0.04	-0.050			
0.9560	61182.42	3.0350	3.0350	-0.0725	25.07	0.04	-0.050			
0.9560	61187.06	3.0340	3.0341	-0.0723	25.07	0.04	-0.050			
0.9561	61191.68	3.0330	3.0330	-0.0721	25.07	0.04	-0.050			
0.9562	61196.18	3.0320	3.0320	-0.0717	25.07	0.04	-0.050			
0.9563	61200.77	3.0310	3.0310	-0.0716	25.07	0.04	-0.050			
0.9563	61205.34	3.0300	3.0300	-0.0714	25.07	0.04	-0.050			
0.9564	61210.01	3.0290	3.0289	-0.0710	25.07	0.04	-0.050			
0.9565	61214.55	3.0280	3.0279	-0.0708	25.08	0.05	-0.050			
0.9565	61219.08	3.0270	3.0270	-0.0706	25.08	0.05	-0.050			
0.9566	61223.59	3.0260	3.0261	-0.0704	25.08	0.05	-0.050			
0.9567	61228.09	3.0250	3.0251	-0.0702	25.08	0.05	-0.050			
0.9568	61232.68	3.0240	3.0241	-0.0701	25.08	0.05	-0.050			
0.9568	61237.16	3.0230	3.0231	-0.0698	25.08	0.05	-0.050			
0.9569	61241.62	3.0220	3.0221	-0.0696	25.08	0.05	-0.050			
0.9570	61245.91	3.0210	3.0211	-0.0696	25.08	0.05	-0.050			
0.9570	61250.36	3.0200	3.0201	-0.0694	25.08	0.05	-0.050			
0.9571	61254.80	3.0190	3.0191	-0.0693	25.08	0.05	-0.050			
0.9572	61259.22	3.0180	3.0180	-0.0691	25.08	0.05	-0.050			
0.9572	61263.54	3.0170	3.0169	-0.0687	25.08	0.05	-0.050			
0.9573	61267.93	3.0160	3.0159	-0.0686	25.09	0.06	-0.050			
0.9574	61272.32	3.0150	3.0148	-0.0685	25.09	0.06	-0.050			
0.9574	61276.70	3.0140	3.0139	-0.0683	25.09	0.06	-0.050			
0.9575	61281.06	3.0130	3.0129	-0.0682	25.09	0.06	-0.050			
0.9576	61285.42	3.0120	3.0120	-0.0681	25.09	0.06	-0.050			
0.9577	61289.78	3.0110	3.0110	-0.0679	25.09	0.06	-0.050			
0.9577	61294.12	3.0100	3.0100	-0.0678	25.09	0.06	-0.050			
0.9578	61298.23	3.0090	3.0090	-0.0680	25.09	0.06	-0.050			
0.9579	61302.58	3.0080	3.0080	-0.0680	25.09	0.06	-0.050			
0.9579	61306.94	3.0070	3.0070	-0.0681	25.09	0.06	-0.050			
0.9580	61311.30	3.0060	3.0060	-0.0682	25.09	0.06	-0.050			
0.9581	61315.66	3.0050	3.0051	-0.0682	25.09	0.06	-0.050			
0.9581	61320.03	3.0040	3.0041	-0.0683	25.10	0.07	-0.050			
