Ah_balance (normalized)	Ah_balance (mAh)	Voltage - fit (V)	Voltage -  interpolate (V)	dQ/dV (1/V)	Temperature (°C)	Temperature - diff (°C)	Current (C)	R_DC 0ms (mOhm)	R_DC 50ms (mOhm)	R_DC 50 ms PEC (mOhm)
0.0002	9.97	4.1790	4.1789	-0.1961	25.08	0.00	-0.050			
0.0004	25.02	4.1780	4.1774	-0.2602	25.08	0.00	-0.050			
0.0007	42.39	4.1770	4.1764	-0.2828	25.08	0.00	-0.050			
0.0010	64.12	4.1760	4.1754	-0.3171	25.08	0.00	-0.050			
0.0013	84.90	4.1750	4.1744	-0.3324	25.08	0.00	-0.050			
0.0017	106.82	4.1740	4.1736	-0.3477	25.08	0.00	-0.050			
0.0020	129.69	4.1730	4.1730	-0.3626	25.08	0.00	-0.050			
0.0024	153.65	4.1720	4.1720	-0.3772	25.08	0.00	-0.050			
0.0028	178.31	4.1710	4.1712	-0.3915	25.08	0.00	-0.050			
0.0032	205.08	4.1700	4.1701	-0.4036	25.08	0.00	-0.050			
0.0036	231.32	4.1690	4.1691	-0.4163	25.08	0.00	-0.050			
0.0040	258.40	4.1680	4.1683	-0.4290	25.08	0.00	-0.050			
0.0045	286.52	4.1670	4.1671	-0.4404	25.07	-0.01	-0.050			
0.0049	315.51	4.1660	4.1659	-0.4505	25.07	-0.01	-0.050			
0.0055	348.86	4.1650	4.1645	-0.4643	25.07	-0.01	-0.050			
0.0059	379.41	4.1640	4.1639	-0.4700	25.07	-0.01	-0.050			
0.0064	409.70	4.1630	4.1630	-0.4769	25.08	-0.00	-0.050			
0.0069	439.71	4.1620	4.1620	-0.4833	25.08	-0.00	-0.050			
0.0074	471.03	4.1610	4.1609	-0.4907	25.07	-0.01	-0.050			
0.0079	502.79	4.1600	4.1602	-0.4979	25.07	-0.01	-0.050			
0.0084	535.16	4.1590	4.1588	-0.5054	25.07	-0.01	-0.050			
0.0089	568.21	4.1580	4.1581	-0.5119	25.07	-0.01	-0.050			
0.0094	600.99	4.1570	4.1573	-0.5192	25.07	-0.01	-0.050			
0.0099	636.31	4.1560	4.1560	-0.5270	25.07	-0.01	-0.050			
0.0105	670.35	4.1550	4.1550	-0.5311	25.07	-0.01	-0.050			
0.0110	705.39	4.1540	4.1540	-0.5351	25.07	-0.01	-0.050			
0.0115	739.20	4.1530	4.1528	-0.5374	25.07	-0.01	-0.050			
0.0121	773.78	4.1520	4.1520	-0.5413	25.06	-0.02	-0.050			
0.0126	808.74	4.1510	4.1509	-0.5449	25.06	-0.02	-0.050			
0.0132	844.40	4.1500	4.1500	-0.5470	25.06	-0.02	-0.050			
0.0137	879.23	4.1490	4.1490	-0.5510	25.06	-0.02	-0.050			
0.0143	915.50	4.1480	4.1481	-0.5535	25.06	-0.02	-0.050			
0.0149	950.53	4.1470	4.1470	-0.5554	25.06	-0.02	-0.050			
0.0154	987.21	4.1460	4.1464	-0.5571	25.06	-0.02	-0.050			
0.0160	1023.26	4.1450	4.1449	-0.5603	25.06	-0.02	-0.050			
0.0165	1059.03	4.1440	4.1438	-0.5639	25.06	-0.02	-0.050			
0.0171	1095.57	4.1430	4.1429	-0.5638	25.06	-0.02	-0.050			
0.0177	1131.71	4.1420	4.1420	-0.5644	25.06	-0.02	-0.050			
0.0182	1166.46	4.1410	4.1409	-0.5678	25.06	-0.02	-0.050			
0.0188	1202.42	4.1400	4.1399	-0.5713	25.06	-0.02	-0.050			
0.0194	1238.64	4.1390	4.1391	-0.5740	25.06	-0.02	-0.050			
0.0199	1275.16	4.1380	4.1381	-0.5769	25.06	-0.02	-0.050	-0.125	0.644	
0.0205	1312.49	4.1370	4.1369	-0.5786	25.06	-0.02	-0.050			
0.0211	1349.29	4.1360	4.1359	-0.5813	25.06	-0.02	-0.050			
0.0217	1386.85	4.1350	4.1349	-0.5868	25.07	-0.01	-0.050			
0.0223	1424.59	4.1340	4.1340	-0.5893	25.07	-0.01	-0.050			
0.0228	1462.22	4.1330	4.1329	-0.5937	25.07	-0.01	-0.050			
0.0234	1500.59	4.1320	4.1318	-0.5967	25.07	-0.01	-0.050			
0.0240	1538.98	4.1310	4.1314	-0.5985	25.08	0.00	-0.050			
0.0247	1577.76	4.1300	4.1300	-0.6016	25.08	0.00	-0.050			
0.0253	1616.82	4.1290	4.1291	-0.6042	25.08	0.00	-0.050			
0.0259	1655.69	4.1280	4.1281	-0.6048	25.08	0.00	-0.050			
0.0265	1695.20	4.1270	4.1269	-0.6084	25.08	0.00	-0.050			
0.0271	1733.84	4.1260	4.1261	-0.6109	25.09	0.01	-0.050			
0.0277	1772.94	4.1250	4.1252	-0.6157	25.09	0.01	-0.050			
0.0283	1811.92	4.1240	4.1239	-0.6163	25.09	0.01	-0.050			
0.0289	1852.32	4.1230	4.1231	-0.6154	25.09	0.01	-0.050			
0.0296	1892.16	4.1220	4.1220	-0.6148	25.09	0.01	-0.050			
0.0302	1931.19	4.1210	4.1209	-0.6156	25.09	0.01	-0.050			
0.0308	1971.57	4.1200	4.1200	-0.6149	25.08	0.00	-0.050			
0.0314	2011.76	4.1190	4.1189	-0.6135	25.09	0.01	-0.050			
0.0320	2050.54	4.1180	4.1178	-0.6143	25.09	0.01	-0.050			
0.0327	2089.86	4.1170	4.1170	-0.6165	25.09	0.01	-0.050			
0.0333	2129.36	4.1160	4.1161	-0.6179	25.09	0.01	-0.050			
0.0339	2167.90	4.1150	4.1154	-0.6199	25.10	0.02	-0.050			
0.0345	2207.38	4.1140	4.1142	-0.6206	25.09	0.01	-0.050			
0.0351	2247.00	4.1130	4.1130	-0.6232	25.09	0.01	-0.050			
0.0357	2286.57	4.1120	4.1118	-0.6242	25.10	0.02	-0.050			
0.0364	2326.74	4.1110	4.1112	-0.6269	25.10	0.02	-0.050			
0.0370	2366.74	4.1100	4.1097	-0.6288	25.10	0.02	-0.050			
0.0376	2407.33	4.1090	4.1087	-0.6279	25.10	0.02	-0.050			
0.0382	2446.90	4.1080	4.1078	-0.6315	25.10	0.02	-0.050			
0.0389	2487.69	4.1070	4.1071	-0.6318	25.10	0.02	-0.050			
0.0395	2527.70	4.1060	4.1059	-0.6330	25.09	0.01	-0.050			
0.0401	2568.04	4.1050	4.1049	-0.6356	25.09	0.01	-0.050	0.416	0.672	
0.0408	2609.15	4.1040	4.1039	-0.6376	25.10	0.02	-0.050			
0.0414	2650.34	4.1030	4.1031	-0.6439	25.10	0.02	-0.050			
0.0421	2691.93	4.1020	4.1020	-0.6496	25.09	0.01	-0.050			
0.0427	2733.70	4.1010	4.1011	-0.6501	25.09	0.01	-0.050			
0.0434	2775.61	4.1000	4.1000	-0.6505	25.09	0.01	-0.050			
0.0440	2818.36	4.0990	4.0989	-0.6529	25.08	0.00	-0.050			
0.0447	2860.07	4.0980	4.0981	-0.6517	25.08	0.00	-0.050			
0.0453	2901.13	4.0970	4.0970	-0.6500	25.07	-0.01	-0.050			
0.0460	2943.03	4.0960	4.0958	-0.6502	25.07	-0.01	-0.050			
0.0466	2984.76	4.0950	4.0950	-0.6505	25.07	-0.01	-0.050			
0.0473	3026.52	4.0940	4.0940	-0.6509	25.07	-0.01	-0.050			
0.0480	3068.86	4.0930	4.0929	-0.6543	25.06	-0.02	-0.050			
0.0486	3110.96	4.0920	4.0923	-0.6533	25.06	-0.02	-0.050			
0.0493	3152.88	4.0910	4.0911	-0.6549	25.07	-0.01	-0.050			
0.0499	3194.64	4.0900	4.0900	-0.6560	25.06	-0.02	-0.050			
0.0506	3236.41	4.0890	4.0889	-0.6578	25.05	-0.03	-0.050			
0.0512	3277.37	4.0880	4.0881	-0.6581	25.05	-0.03	-0.050			
0.0519	3319.41	4.0870	4.0870	-0.6605	25.05	-0.03	-0.050			
0.0525	3361.95	4.0860	4.0858	-0.6620	25.04	-0.04	-0.050			
0.0532	3403.42	4.0850	4.0850	-0.6633	25.05	-0.03	-0.050			
0.0538	3446.02	4.0840	4.0837	-0.6631	25.04	-0.04	-0.050			
0.0545	3488.80	4.0830	4.0832	-0.6645	25.04	-0.04	-0.050			
0.0552	3531.24	4.0820	4.0819	-0.6642	25.04	-0.04	-0.050			
0.0559	3574.48	4.0810	4.0811	-0.6673	25.04	-0.04	-0.050			
0.0565	3618.34	4.0800	4.0802	-0.6711	25.04	-0.04	-0.050			
0.0572	3661.77	4.0790	4.0790	-0.6716	25.04	-0.04	-0.050			
0.0579	3705.21	4.0780	4.0780	-0.6715	25.03	-0.05	-0.050			
0.0586	3748.37	4.0770	4.0772	-0.6732	25.03	-0.05	-0.050			
0.0592	3791.60	4.0760	4.0762	-0.6731	25.03	-0.05	-0.050			
0.0599	3834.55	4.0750	4.0749	-0.6743	25.04	-0.04	-0.050	0.339	0.601	
0.0606	3877.09	4.0740	4.0739	-0.6758	25.04	-0.04	-0.050			
0.0613	3920.18	4.0730	4.0731	-0.6764	25.03	-0.05	-0.050			
0.0619	3963.24	4.0720	4.0721	-0.6766	25.03	-0.05	-0.050			
0.0626	4006.99	4.0710	4.0710	-0.6772	25.03	-0.05	-0.050			
0.0633	4049.83	4.0700	4.0700	-0.6764	25.03	-0.05	-0.050			
0.0639	4092.35	4.0690	4.0691	-0.6787	25.02	-0.06	-0.050			
0.0646	4135.46	4.0680	4.0680	-0.6799	25.03	-0.05	-0.050			
0.0653	4179.13	4.0670	4.0671	-0.6801	25.03	-0.05	-0.050			
0.0660	4222.97	4.0660	4.0659	-0.6834	25.03	-0.05	-0.050			
0.0667	4266.95	4.0650	4.0649	-0.6857	25.03	-0.05	-0.050			
0.0674	4310.87	4.0640	4.0640	-0.6869	25.03	-0.05	-0.050			
0.0681	4356.50	4.0630	4.0632	-0.6877	25.04	-0.04	-0.050			
0.0688	4400.46	4.0620	4.0619	-0.6882	25.04	-0.04	-0.050			
0.0694	4444.39	4.0610	4.0610	-0.6896	25.04	-0.04	-0.050			
0.0701	4488.61	4.0600	4.0599	-0.6895	25.04	-0.04	-0.050			
0.0708	4532.03	4.0590	4.0593	-0.6932	25.04	-0.04	-0.050			
0.0715	4576.29	4.0580	4.0581	-0.6954	25.04	-0.04	-0.050			
0.0722	4620.05	4.0570	4.0569	-0.6955	25.04	-0.04	-0.050			
0.0729	4665.49	4.0560	4.0560	-0.6949	25.04	-0.04	-0.050			
0.0736	4709.71	4.0550	4.0552	-0.6979	25.04	-0.04	-0.050			
0.0743	4753.86	4.0540	4.0542	-0.6997	25.03	-0.05	-0.050			
0.0750	4798.83	4.0530	4.0528	-0.7008	25.04	-0.04	-0.050			
0.0757	4844.62	4.0520	4.0521	-0.7026	25.04	-0.04	-0.050			
0.0764	4889.63	4.0510	4.0510	-0.7043	25.04	-0.04	-0.050			
0.0771	4934.77	4.0500	4.0499	-0.7055	25.04	-0.04	-0.050			
0.0778	4979.41	4.0490	4.0491	-0.7051	25.04	-0.04	-0.050			
0.0785	5024.31	4.0480	4.0485	-0.7085	25.04	-0.04	-0.050			
0.0792	5071.16	4.0470	4.0472	-0.7094	25.04	-0.04	-0.050			
0.0799	5116.71	4.0460	4.0461	-0.7093	25.04	-0.04	-0.050	0.341	0.438	
0.0807	5162.31	4.0450	4.0450	-0.7114	25.04	-0.04	-0.050			
0.0814	5208.64	4.0440	4.0441	-0.7112	25.04	-0.04	-0.050			
0.0821	5254.85	4.0430	4.0430	-0.7107	25.03	-0.05	-0.050			
0.0828	5300.61	4.0420	4.0418	-0.7107	25.04	-0.04	-0.050			
0.0835	5345.58	4.0410	4.0408	-0.7074	25.04	-0.04	-0.050			
0.0842	5390.81	4.0400	4.0400	-0.7058	25.03	-0.05	-0.050			
0.0849	5435.21	4.0390	4.0389	-0.7056	25.03	-0.05	-0.050			
0.0856	5479.68	4.0380	4.0381	-0.7064	25.03	-0.05	-0.050			
0.0863	5525.53	4.0370	4.0369	-0.7078	25.04	-0.04	-0.050			
0.0870	5571.00	4.0360	4.0360	-0.7083	25.03	-0.05	-0.050			
0.0878	5616.32	4.0350	4.0350	-0.7092	25.03	-0.05	-0.050			
0.0884	5660.30	4.0340	4.0342	-0.7082	25.04	-0.04	-0.050			
0.0891	5705.54	4.0330	4.0328	-0.7116	25.04	-0.04	-0.050			
0.0899	5750.95	4.0320	4.0318	-0.7126	25.04	-0.04	-0.050			
0.0906	5796.67	4.0310	4.0309	-0.7137	25.05	-0.03	-0.050			
0.0913	5842.28	4.0300	4.0298	-0.7134	25.05	-0.03	-0.050			
0.0920	5887.04	4.0290	4.0292	-0.7180	25.06	-0.02	-0.050			
0.0927	5933.68	4.0280	4.0282	-0.7176	25.06	-0.02	-0.050			
0.0934	5979.60	4.0270	4.0270	-0.7199	25.06	-0.02	-0.050			
0.0942	6026.50	4.0260	4.0258	-0.7239	25.07	-0.01	-0.050			
0.0949	6073.02	4.0250	4.0251	-0.7239	25.07	-0.01	-0.050			
0.0956	6120.60	4.0240	4.0240	-0.7240	25.07	-0.01	-0.050			
0.0964	6167.11	4.0230	4.0231	-0.7280	25.08	-0.00	-0.050			
0.0971	6213.59	4.0220	4.0220	-0.7284	25.08	0.00	-0.050			
0.0978	6260.55	4.0210	4.0211	-0.7267	25.08	0.00	-0.050			
0.0986	6307.26	4.0200	4.0199	-0.7270	25.08	0.00	-0.050			
0.0993	6353.00	4.0190	4.0191	-0.7283	25.08	0.00	-0.050			
0.1000	6399.84	4.0180	4.0178	-0.7276	25.09	0.01	-0.050	0.579	0.685	
0.1007	6447.23	4.0170	4.0170	-0.7283	25.09	0.01	-0.050			
0.1015	6493.43	4.0160	4.0160	-0.7292	25.09	0.01	-0.050			
0.1022	6540.16	4.0150	4.0151	-0.7271	25.09	0.01	-0.050			
0.1029	6586.42	4.0140	4.0139	-0.7262	25.10	0.02	-0.050			
0.1036	6633.16	4.0130	4.0128	-0.7239	25.09	0.01	-0.050			
0.1044	6678.63	4.0120	4.0123	-0.7276	25.09	0.01	-0.050			
0.1051	6725.82	4.0110	4.0111	-0.7279	25.10	0.02	-0.050			
0.1058	6772.41	4.0100	4.0099	-0.7268	25.09	0.01	-0.050			
0.1065	6818.66	4.0090	4.0090	-0.7265	25.10	0.02	-0.050			
0.1073	6865.48	4.0080	4.0082	-0.7295	25.09	0.01	-0.050			
0.1080	6912.21	4.0070	4.0068	-0.7289	25.09	0.01	-0.050			
0.1087	6957.84	4.0060	4.0061	-0.7280	25.08	0.00	-0.050			
0.1094	7003.70	4.0050	4.0051	-0.7310	25.08	0.00	-0.050			
0.1102	7050.61	4.0040	4.0040	-0.7354	25.08	0.00	-0.050			
0.1109	7097.71	4.0030	4.0026	-0.7347	25.08	-0.00	-0.050			
0.1116	7144.20	4.0020	4.0021	-0.7334	25.07	-0.01	-0.050			
0.1124	7192.19	4.0010	4.0011	-0.7352	25.07	-0.01	-0.050			
0.1131	7239.29	4.0000	4.0000	-0.7376	25.07	-0.01	-0.050			
0.1138	7285.55	3.9990	3.9989	-0.7388	25.07	-0.01	-0.050			
0.1146	7332.16	3.9980	3.9983	-0.7436	25.06	-0.02	-0.050			
0.1153	7380.88	3.9970	3.9967	-0.7470	25.06	-0.02	-0.050			
0.1161	7428.52	3.9960	3.9959	-0.7490	25.06	-0.02	-0.050			
0.1168	7476.26	3.9950	3.9953	-0.7509	25.06	-0.02	-0.050			
0.1176	7524.99	3.9940	3.9943	-0.7550	25.06	-0.02	-0.050			
0.1183	7573.87	3.9930	3.9929	-0.7537	25.06	-0.02	-0.050			
0.1191	7621.34	3.9920	3.9918	-0.7549	25.06	-0.02	-0.050			
0.1198	7669.72	3.9910	3.9909	-0.7591	25.05	-0.03	-0.050	-0.263	0.575	
0.1206	7719.87	3.9900	3.9902	-0.7618	25.05	-0.03	-0.050			
0.1214	7769.33	3.9890	3.9890	-0.7600	25.05	-0.03	-0.050			
0.1222	7818.31	3.9880	3.9877	-0.7582	25.05	-0.03	-0.050			
0.1229	7866.49	3.9870	3.9870	-0.7601	25.05	-0.03	-0.050			
0.1237	7915.11	3.9860	3.9861	-0.7605	25.04	-0.04	-0.050			
0.1244	7963.48	3.9850	3.9851	-0.7586	25.04	-0.04	-0.050			
0.1252	8012.38	3.9840	3.9841	-0.7579	25.03	-0.05	-0.050			
0.1260	8061.17	3.9830	3.9827	-0.7611	25.03	-0.05	-0.050			
0.1267	8110.61	3.9820	3.9819	-0.7624	25.02	-0.06	-0.050			
0.1275	8158.91	3.9810	3.9813	-0.7606	25.02	-0.06	-0.050			
0.1282	8207.32	3.9800	3.9799	-0.7607	25.02	-0.06	-0.050			
0.1290	8255.46	3.9790	3.9786	-0.7577	25.02	-0.06	-0.050			
0.1297	8303.00	3.9780	3.9778	-0.7591	25.01	-0.07	-0.050			
0.1305	8351.92	3.9770	3.9769	-0.7610	25.01	-0.07	-0.050			
0.1313	8400.76	3.9760	3.9762	-0.7637	25.01	-0.07	-0.050			
0.1320	8449.78	3.9750	3.9750	-0.7618	25.00	-0.08	-0.050			
0.1328	8498.42	3.9740	3.9737	-0.7638	25.00	-0.08	-0.050			
0.1336	8547.87	3.9730	3.9731	-0.7634	25.00	-0.08	-0.050			
0.1343	8596.05	3.9720	3.9721	-0.7641	25.00	-0.08	-0.050			
0.1351	8645.04	3.9710	3.9708	-0.7644	25.00	-0.08	-0.050			
0.1359	8694.74	3.9700	3.9701	-0.7666	25.00	-0.08	-0.050			
0.1366	8744.58	3.9690	3.9689	-0.7696	25.00	-0.08	-0.050			
0.1374	8792.97	3.9680	3.9683	-0.7736	25.01	-0.07	-0.050			
0.1382	8842.29	3.9670	3.9672	-0.7702	25.01	-0.07	-0.050			
0.1389	8891.77	3.9660	3.9661	-0.7711	25.02	-0.06	-0.050			
0.1397	8941.55	3.9650	3.9648	-0.7731	25.03	-0.05	-0.050			
0.1405	8990.99	3.9640	3.9639	-0.7759	25.03	-0.05	-0.050	0.359	0.701	
0.1413	9040.07	3.9630	3.9628	-0.7759	25.04	-0.04	-0.050			
0.1420	9089.96	3.9620	3.9623	-0.7769	25.04	-0.04	-0.050			
0.1428	9140.54	3.9610	3.9609	-0.7774	25.04	-0.04	-0.050			
0.1436	9190.82	3.9600	3.9601	-0.7764	25.04	-0.04	-0.050			
0.1444	9239.81	3.9590	3.9587	-0.7794	25.03	-0.05	-0.050			
0.1451	9289.09	3.9580	3.9583	-0.7804	25.03	-0.05	-0.050			
0.1459	9339.86	3.9570	3.9568	-0.7801	25.04	-0.04	-0.050			
0.1467	9390.11	3.9560	3.9556	-0.7815	25.04	-0.04	-0.050			
0.1475	9440.39	3.9550	3.9550	-0.7812	25.04	-0.04	-0.050			
0.1483	9490.97	3.9540	3.9542	-0.7790	25.04	-0.04	-0.050			
0.1491	9541.31	3.9530	3.9531	-0.7791	25.04	-0.04	-0.050			
0.1499	9590.93	3.9520	3.9520	-0.7798	25.05	-0.03	-0.050			
0.1506	9639.90	3.9510	3.9509	-0.7793	25.05	-0.03	-0.050			
0.1514	9689.85	3.9500	3.9498	-0.7788	25.05	-0.03	-0.050			
0.1522	9740.24	3.9490	3.9491	-0.7774	25.05	-0.03	-0.050			
0.1529	9788.44	3.9480	3.9483	-0.7774	25.06	-0.02	-0.050			
0.1537	9838.89	3.9470	3.9470	-0.7811	25.06	-0.02	-0.050			
0.1545	9889.33	3.9460	3.9460	-0.7824	25.06	-0.02	-0.050			
0.1553	9938.82	3.9450	3.9450	-0.7807	25.07	-0.01	-0.050			
0.1561	9989.02	3.9440	3.9438	-0.7786	25.07	-0.01	-0.050			
0.1568	10037.85	3.9430	3.9429	-0.7837	25.07	-0.01	-0.050			
0.1576	10088.41	3.9420	3.9421	-0.7850	25.07	-0.01	-0.050			
0.1584	10138.52	3.9410	3.9412	-0.7874	25.07	-0.01	-0.050			
0.1592	10189.01	3.9400	3.9401	-0.7886	25.07	-0.01	-0.050			
0.1600	10238.55	3.9390	3.9390	-0.7868	25.08	0.00	-0.050	-0.286	0.550	
0.1608	10289.12	3.9380	3.9380	-0.7906	25.08	-0.00	-0.050			
0.1616	10340.91	3.9370	3.9372	-0.7918	25.07	-0.01	-0.050			
0.1624	10392.61	3.9360	3.9359	-0.7943	25.08	0.00	-0.050			
0.1632	10443.27	3.9350	3.9349	-0.7941	25.08	0.00	-0.050			
0.1640	10495.30	3.9340	3.9338	-0.7939	25.08	0.00	-0.050			
0.1648	10546.13	3.9330	3.9334	-0.7913	25.08	0.00	-0.050			
0.1656	10597.12	3.9320	3.9319	-0.7891	25.09	0.01	-0.050			
0.1664	10648.16	3.9310	3.9310	-0.7882	25.09	0.01	-0.050			
0.1672	10699.03	3.9300	3.9302	-0.7860	25.09	0.01	-0.050			
0.1679	10748.74	3.9290	3.9291	-0.7878	25.10	0.02	-0.050			
0.1687	10798.60	3.9280	3.9283	-0.7838	25.09	0.01	-0.050			
0.1695	10848.03	3.9270	3.9271	-0.7847	25.09	0.01	-0.050			
0.1703	10897.75	3.9260	3.9257	-0.7884	25.09	0.01	-0.050			
0.1711	10948.58	3.9250	3.9253	-0.7874	25.09	0.01	-0.050			
0.1719	10998.52	3.9240	3.9238	-0.7874	25.08	0.00	-0.050			
0.1726	11047.64	3.9230	3.9230	-0.7845	25.08	-0.00	-0.050			
0.1734	11097.79	3.9220	3.9219	-0.7867	25.07	-0.01	-0.050			
0.1742	11148.51	3.9210	3.9209	-0.7864	25.07	-0.01	-0.050			
0.1750	11198.61	3.9200	3.9196	-0.7877	25.07	-0.01	-0.050			
0.1758	11249.70	3.9190	3.9191	-0.7880	25.07	-0.01	-0.050			
0.1766	11299.55	3.9180	3.9178	-0.7902	25.07	-0.01	-0.050			
0.1774	11350.65	3.9170	3.9169	-0.7938	25.07	-0.01	-0.050			
0.1782	11402.46	3.9160	3.9163	-0.7950	25.07	-0.01	-0.050			
0.1789	11452.72	3.9150	3.9152	-0.7966	25.06	-0.02	-0.050			
0.1798	11504.44	3.9140	3.9139	-0.7966	25.06	-0.02	-0.050	0.185	0.897	
0.1806	11555.92	3.9130	3.9130	-0.7984	25.06	-0.02	-0.050			
0.1814	11607.63	3.9120	3.9118	-0.7976	25.06	-0.02	-0.050			
0.1822	11658.63	3.9110	3.9108	-0.7975	25.05	-0.03	-0.050			
0.1830	11709.46	3.9100	3.9099	-0.7959	25.06	-0.02	-0.050			
0.1837	11759.60	3.9090	3.9089	-0.7935	25.05	-0.03	-0.050			
0.1845	11810.29	3.9080	3.9079	-0.7946	25.05	-0.03	-0.050			
0.1853	11861.29	3.9070	3.9071	-0.7946	25.05	-0.03	-0.050			
0.1861	11911.50	3.9060	3.9060	-0.7951	25.06	-0.02	-0.050			
0.1869	11963.18	3.9050	3.9051	-0.7960	25.06	-0.02	-0.050			
0.1877	12014.44	3.9040	3.9040	-0.7970	25.05	-0.03	-0.050			
0.1885	12065.40	3.9030	3.9029	-0.7951	25.05	-0.03	-0.050			
0.1893	12117.07	3.9020	3.9019	-0.7956	25.05	-0.03	-0.050			
0.1901	12167.92	3.9010	3.9011	-0.7927	25.05	-0.03	-0.050			
0.1909	12219.61	3.9000	3.8997	-0.7898	25.05	-0.03	-0.050			
0.1917	12268.66	3.8990	3.8992	-0.7917	25.05	-0.03	-0.050			
0.1925	12318.68	3.8980	3.8980	-0.7903	25.04	-0.04	-0.050			
0.1933	12369.30	3.8970	3.8972	-0.7893	25.04	-0.04	-0.050			
0.1941	12420.05	3.8960	3.8962	-0.7905	25.04	-0.04	-0.050			
0.1948	12469.77	3.8950	3.8948	-0.7917	25.03	-0.05	-0.050			
0.1956	12520.51	3.8940	3.8941	-0.7913	25.03	-0.05	-0.050			
0.1964	12572.48	3.8930	3.8930	-0.7913	25.02	-0.06	-0.050			
0.1972	12623.12	3.8920	3.8919	-0.7889	25.02	-0.06	-0.050			
0.1980	12673.66	3.8910	3.8909	-0.7881	25.01	-0.07	-0.050			
0.1988	12724.01	3.8900	3.8899	-0.7888	25.01	-0.07	-0.050			
0.1996	12774.14	3.8890	3.8890	-0.7873	25.01	-0.07	-0.050			
0.2004	12824.57	3.8880	3.8878	-0.7899	25.00	-0.08	-0.050	0.221	0.806	
0.2012	12874.28	3.8870	3.8869	-0.7903	25.00	-0.08	-0.050			
0.2020	12925.57	3.8860	3.8859	-0.7899	25.00	-0.08	-0.050			
0.2028	12976.32	3.8850	3.8852	-0.7888	25.00	-0.08	-0.050			
0.2036	13027.50	3.8840	3.8841	-0.7897	25.00	-0.08	-0.050			
0.2043	13078.03	3.8830	3.8828	-0.7889	25.00	-0.08	-0.050			
0.2051	13129.42	3.8820	3.8817	-0.7883	25.00	-0.08	-0.050			
0.2059	13180.23	3.8810	3.8811	-0.7852	25.00	-0.08	-0.050			
0.2067	13229.30	3.8800	3.8795	-0.7863	24.99	-0.09	-0.050			
0.2075	13279.29	3.8790	3.8789	-0.7843	25.00	-0.08	-0.050			
0.2083	13329.14	3.8780	3.8780	-0.7853	25.01	-0.07	-0.050			
0.2090	13378.94	3.8770	3.8770	-0.7866	25.00	-0.08	-0.050			
0.2098	13428.99	3.8760	3.8764	-0.7880	25.00	-0.08	-0.050			
0.2106	13478.58	3.8750	3.8749	-0.7885	25.00	-0.08	-0.050			
0.2114	13529.55	3.8740	3.8741	-0.7909	25.00	-0.08	-0.050			
0.2122	13581.43	3.8730	3.8728	-0.7907	25.00	-0.08	-0.050			
0.2130	13631.82	3.8720	3.8719	-0.7920	25.00	-0.08	-0.050			
0.2138	13681.64	3.8710	3.8708	-0.7896	25.00	-0.08	-0.050			
0.2146	13733.38	3.8700	3.8702	-0.7893	25.00	-0.08	-0.050			
0.2154	13783.37	3.8690	3.8691	-0.7877	25.01	-0.07	-0.050			
0.2162	13834.06	3.8680	3.8678	-0.7875	25.01	-0.07	-0.050			
0.2169	13884.58	3.8670	3.8672	-0.7888	25.01	-0.07	-0.050			
0.2177	13934.83	3.8660	3.8663	-0.7894	25.01	-0.07	-0.050			
0.2185	13986.33	3.8650	3.8651	-0.7921	25.02	-0.06	-0.050			
0.2193	14037.05	3.8640	3.8639	-0.7896	25.01	-0.07	-0.050			
0.2201	14087.62	3.8630	3.8629	-0.7881	25.02	-0.06	-0.050	0.244	0.458	
0.2209	14138.42	3.8620	3.8620	-0.7893	25.03	-0.05	-0.050			
0.2217	14188.68	3.8610	3.8610	-0.7894	25.03	-0.05	-0.050			
0.2225	14237.83	3.8600	3.8599	-0.7849	25.03	-0.05	-0.050			
0.2233	14288.64	3.8590	3.8589	-0.7857	25.04	-0.04	-0.050			
0.2240	14338.97	3.8580	3.8581	-0.7850	25.05	-0.03	-0.050			
0.2248	14389.31	3.8570	3.8569	-0.7816	25.05	-0.03	-0.050			
0.2256	14440.46	3.8560	3.8560	-0.7783	25.06	-0.02	-0.050			
0.2264	14489.99	3.8550	3.8550	-0.7788	25.07	-0.01	-0.050			
0.2272	14539.79	3.8540	3.8538	-0.7780	25.07	-0.01	-0.050			
0.2280	14590.29	3.8530	3.8530	-0.7770	25.07	-0.01	-0.050			
0.2287	14639.58	3.8520	3.8520	-0.7752	25.07	-0.01	-0.050			
0.2295	14689.50	3.8510	3.8512	-0.7734	25.08	-0.00	-0.050			
0.2303	14739.02	3.8500	3.8504	-0.7737	25.08	0.00	-0.050			
0.2311	14788.61	3.8490	3.8491	-0.7725	25.08	0.00	-0.050			
0.2318	14837.24	3.8480	3.8481	-0.7698	25.08	0.00	-0.050			
0.2326	14886.01	3.8470	3.8469	-0.7674	25.09	0.01	-0.050			
0.2334	14934.87	3.8460	3.8457	-0.7645	25.09	0.01	-0.050			
0.2341	14984.12	3.8450	3.8450	-0.7634	25.09	0.01	-0.050			
0.2349	15033.43	3.8440	3.8440	-0.7613	25.09	0.01	-0.050			
0.2357	15082.05	3.8430	3.8428	-0.7588	25.09	0.01	-0.050			
0.2364	15130.18	3.8420	3.8420	-0.7567	25.09	0.01	-0.050			
0.2371	15177.57	3.8410	3.8411	-0.7580	25.09	0.01	-0.050			
0.2379	15226.27	3.8400	3.8400	-0.7595	25.09	0.01	-0.050			
0.2387	15275.08	3.8390	3.8390	-0.7587	25.08	0.00	-0.050			
0.2394	15323.97	3.8380	3.8381	-0.7592	25.08	0.00	-0.050			
0.2402	15372.92	3.8370	3.8369	-0.7580	25.08	0.00	-0.050	0.286	0.569	
0.2410	15421.31	3.8360	3.8361	-0.7594	25.08	0.00	-0.050			
0.2417	15468.83	3.8350	3.8349	-0.7550	25.08	0.00	-0.050			
0.2425	15517.77	3.8340	3.8338	-0.7541	25.08	0.00	-0.050			
0.2432	15565.77	3.8330	3.8330	-0.7551	25.08	-0.00	-0.050			
0.2440	15614.40	3.8320	3.8319	-0.7541	25.07	-0.01	-0.050			
0.2447	15662.79	3.8310	3.8311	-0.7512	25.07	-0.01	-0.050			
0.2455	15710.55	3.8300	3.8302	-0.7516	25.07	-0.01	-0.050			
0.2462	15758.43	3.8290	3.8290	-0.7530	25.07	-0.01	-0.050			
0.2470	15806.65	3.8280	3.8281	-0.7532	25.07	-0.01	-0.050			
0.2477	15855.83	3.8270	3.8268	-0.7520	25.07	-0.01	-0.050			
0.2485	15904.36	3.8260	3.8261	-0.7509	25.07	-0.01	-0.050			
0.2493	15952.60	3.8250	3.8250	-0.7503	25.06	-0.02	-0.050			
0.2500	16000.51	3.8240	3.8239	-0.7487	25.07	-0.01	-0.050			
0.2508	16048.36	3.8230	3.8230	-0.7466	25.06	-0.02	-0.050			
0.2515	16095.53	3.8220	3.8221	-0.7444	25.06	-0.02	-0.050			
0.2522	16142.36	3.8210	3.8207	-0.7415	25.06	-0.02	-0.050			
0.2530	16189.46	3.8200	3.8199	-0.7424	25.06	-0.02	-0.050			
0.2537	16237.52	3.8190	3.8191	-0.7426	25.05	-0.03	-0.050			
0.2545	16285.13	3.8180	3.8184	-0.7430	25.06	-0.02	-0.050			
0.2552	16332.34	3.8170	3.8168	-0.7424	25.06	-0.02	-0.050			
0.2559	16379.60	3.8160	3.8161	-0.7405	25.05	-0.03	-0.050			
0.2567	16427.34	3.8150	3.8149	-0.7409	25.05	-0.03	-0.050			
0.2574	16475.00	3.8140	3.8140	-0.7409	25.05	-0.03	-0.050			
0.2582	16523.07	3.8130	3.8129	-0.7381	25.05	-0.03	-0.050			
0.2589	16569.57	3.8120	3.8120	-0.7374	25.05	-0.03	-0.050			
0.2596	16617.46	3.8110	3.8109	-0.7367	25.05	-0.03	-0.050			
0.2604	16664.25	3.8100	3.8100	-0.7328	25.05	-0.03	-0.050	0.468	0.568	
0.2611	16710.17	3.8090	3.8092	-0.7342	25.05	-0.03	-0.050			
0.2618	16757.45	3.8080	3.8081	-0.7344	25.05	-0.03	-0.050			
0.2626	16804.78	3.8070	3.8073	-0.7362	25.04	-0.04	-0.050			
0.2633	16852.48	3.8060	3.8060	-0.7338	25.04	-0.04	-0.050			
0.2641	16899.28	3.8050	3.8052	-0.7337	25.04	-0.04	-0.050			
0.2648	16945.84	3.8040	3.8040	-0.7326	25.04	-0.04	-0.050			
0.2655	16992.62	3.8030	3.8028	-0.7322	25.04	-0.04	-0.050			
0.2662	17039.30	3.8020	3.8020	-0.7319	25.03	-0.05	-0.050			
0.2670	17085.83	3.8010	3.8010	-0.7312	25.03	-0.05	-0.050			
0.2677	17131.90	3.8000	3.7999	-0.7313	25.03	-0.05	-0.050			
0.2684	17178.71	3.7990	3.7992	-0.7339	25.02	-0.06	-0.050			
0.2692	17225.76	3.7980	3.7983	-0.7344	25.03	-0.05	-0.050			
0.2699	17273.23	3.7970	3.7970	-0.7328	25.02	-0.06	-0.050			
0.2706	17319.92	3.7960	3.7961	-0.7347	25.01	-0.07	-0.050			
0.2714	17366.88	3.7950	3.7949	-0.7363	25.01	-0.07	-0.050			
0.2721	17414.27	3.7940	3.7941	-0.7386	25.01	-0.07	-0.050			
0.2728	17461.56	3.7930	3.7928	-0.7397	25.00	-0.08	-0.050			
0.2736	17508.92	3.7920	3.7919	-0.7416	25.00	-0.08	-0.050			
0.2743	17555.85	3.7910	3.7910	-0.7409	24.99	-0.09	-0.050			
0.2751	17603.77	3.7900	3.7899	-0.7430	24.99	-0.09	-0.050			
0.2758	17651.08	3.7890	3.7892	-0.7403	24.99	-0.09	-0.050			
0.2765	17698.25	3.7880	3.7879	-0.7423	24.97	-0.11	-0.050			
0.2773	17746.58	3.7870	3.7869	-0.7452	24.97	-0.11	-0.050			
0.2780	17793.75	3.7860	3.7859	-0.7481	24.96	-0.12	-0.050			
0.2788	17841.73	3.7850	3.7850	-0.7521	24.95	-0.13	-0.050			
0.2795	17889.79	3.7840	3.7841	-0.7509	24.94	-0.14	-0.050			
0.2803	17938.43	3.7830	3.7829	-0.7514	24.93	-0.15	-0.050	0.381	0.629	
0.2810	17986.20	3.7820	3.7820	-0.7534	24.93	-0.15	-0.050			
0.2818	18034.61	3.7810	3.7810	-0.7537	24.92	-0.16	-0.050			
0.2825	18082.47	3.7800	3.7800	-0.7562	24.91	-0.17	-0.050			
0.2833	18131.14	3.7790	3.7788	-0.7562	24.91	-0.17	-0.050			
0.2841	18179.82	3.7780	3.7780	-0.7604	24.90	-0.18	-0.050			
0.2848	18228.04	3.7770	3.7769	-0.7635	24.89	-0.19	-0.050			
0.2856	18277.21	3.7760	3.7763	-0.7651	24.89	-0.19	-0.050			
0.2863	18325.19	3.7750	3.7752	-0.7664	24.89	-0.19	-0.050			
0.2871	18374.04	3.7740	3.7738	-0.7711	24.89	-0.19	-0.050			
0.2879	18422.84	3.7730	3.7729	-0.7761	24.89	-0.19	-0.050			
0.2886	18472.91	3.7720	3.7721	-0.7797	24.89	-0.19	-0.050			
0.2894	18523.27	3.7710	3.7708	-0.7817	24.89	-0.19	-0.050			
0.2902	18573.78	3.7700	3.7701	-0.7852	24.89	-0.19	-0.050			
0.2910	18624.49	3.7690	3.7690	-0.7872	24.89	-0.19	-0.050			
0.2918	18675.32	3.7680	3.7679	-0.7868	24.90	-0.18	-0.050			
0.2926	18725.62	3.7670	3.7670	-0.7908	24.89	-0.19	-0.050			
0.2934	18775.76	3.7660	3.7659	-0.7952	24.90	-0.18	-0.050			
0.2942	18826.22	3.7650	3.7650	-0.7989	24.92	-0.16	-0.050			
0.2950	18878.54	3.7640	3.7640	-0.8023	24.92	-0.16	-0.050			
0.2958	18930.72	3.7630	3.7632	-0.8071	24.93	-0.15	-0.050			
0.2966	18981.76	3.7620	3.7622	-0.8091	24.95	-0.13	-0.050			
0.2974	19033.62	3.7610	3.7611	-0.8126	24.96	-0.12	-0.050			
0.2982	19084.64	3.7600	3.7600	-0.8176	24.98	-0.10	-0.050			
0.2990	19137.30	3.7590	3.7588	-0.8226	24.99	-0.09	-0.050			
0.2998	19189.87	3.7580	3.7581	-0.8266	25.00	-0.08	-0.050	0.405	0.623	
0.3007	19242.21	3.7570	3.7571	-0.8293	25.01	-0.07	-0.050			
0.3015	19295.00	3.7560	3.7561	-0.8357	25.03	-0.05	-0.050			
0.3023	19348.62	3.7550	3.7551	-0.8397	25.05	-0.03	-0.050			
0.3032	19402.42	3.7540	3.7537	-0.8454	25.05	-0.03	-0.050			
0.3040	19456.49	3.7530	3.7529	-0.8518	25.07	-0.01	-0.050			
0.3049	19511.90	3.7520	3.7523	-0.8583	25.07	-0.01	-0.050			
0.3057	19567.22	3.7510	3.7509	-0.8668	25.07	-0.01	-0.050			
0.3066	19623.44	3.7500	3.7502	-0.8717	25.08	0.00	-0.050			
0.3075	19679.68	3.7490	3.7488	-0.8752	25.08	0.00	-0.050			
0.3084	19735.64	3.7480	3.7480	-0.8808	25.08	0.00	-0.050			
0.3093	19792.43	3.7470	3.7469	-0.8863	25.08	0.00	-0.050			
0.3101	19848.78	3.7460	3.7462	-0.8892	25.08	0.00	-0.050			
0.3110	19905.52	3.7450	3.7452	-0.8980	25.08	0.00	-0.050			
0.3119	19963.41	3.7440	3.7440	-0.9038	25.08	0.00	-0.050			
0.3128	20022.16	3.7430	3.7430	-0.9090	25.08	0.00	-0.050			
0.3138	20080.19	3.7420	3.7422	-0.9122	25.09	0.01	-0.050			
0.3147	20138.74	3.7410	3.7412	-0.9160	25.09	0.01	-0.050			
0.3156	20197.10	3.7400	3.7401	-0.9208	25.09	0.01	-0.050			
0.3165	20255.71	3.7390	3.7387	-0.9286	25.09	0.01	-0.050			
0.3174	20315.23	3.7380	3.7380	-0.9366	25.09	0.01	-0.050			
0.3184	20375.06	3.7370	3.7370	-0.9421	25.08	0.00	-0.050			
0.3193	20435.85	3.7360	3.7360	-0.9467	25.09	0.01	-0.050			
0.3203	20496.87	3.7350	3.7349	-0.9519	25.09	0.01	-0.050	0.108	0.595	
0.3212	20559.11	3.7340	3.7340	-0.9569	25.08	0.00	-0.050			
0.3222	20620.24	3.7330	3.7328	-0.9601	25.07	-0.01	-0.050			
0.3232	20682.11	3.7320	3.7321	-0.9639	25.08	-0.00	-0.050			
0.3241	20744.09	3.7310	3.7311	-0.9694	25.08	0.00	-0.050			
0.3251	20806.62	3.7300	3.7300	-0.9746	25.08	0.00	-0.050			
0.3261	20869.56	3.7290	3.7289	-0.9798	25.08	0.00	-0.050			
0.3271	20932.17	3.7280	3.7282	-0.9813	25.08	0.00	-0.050			
0.3280	20994.25	3.7270	3.7270	-0.9879	25.08	0.00	-0.050			
0.3290	21056.80	3.7260	3.7258	-0.9963	25.08	0.00	-0.050			
0.3300	21120.41	3.7250	3.7251	-0.9992	25.08	-0.00	-0.050			
0.3310	21183.47	3.7240	3.7239	-1.0150	25.07	-0.01	-0.050			
0.3320	21247.67	3.7230	3.7230	-1.0260	25.07	-0.01	-0.050			
0.3330	21312.58	3.7220	3.7219	-1.0348	25.07	-0.01	-0.050			
0.3340	21378.74	3.7210	3.7211	-1.0414	25.07	-0.01	-0.050			
0.3351	21445.79	3.7200	3.7200	-1.0517	25.07	-0.01	-0.050			
0.3361	21513.05	3.7190	3.7189	-1.0591	25.06	-0.02	-0.050			
0.3372	21581.63	3.7180	3.7178	-1.0702	25.06	-0.02	-0.050			
0.3383	21651.75	3.7170	3.7168	-1.0795	25.06	-0.02	-0.050			
0.3394	21721.54	3.7160	3.7161	-1.0907	25.05	-0.03	-0.050			
0.3405	21793.03	3.7150	3.7149	-1.0981	25.03	-0.05	-0.050	0.003	0.502	
0.3416	21863.95	3.7140	3.7142	-1.1092	25.02	-0.06	-0.050			
0.3427	21935.05	3.7130	3.7133	-1.1182	25.01	-0.07	-0.050			
0.3439	22007.79	3.7120	3.7119	-1.1244	24.98	-0.10	-0.050			
0.3450	22080.01	3.7110	3.7110	-1.1312	24.97	-0.11	-0.050			
0.3462	22153.94	3.7100	3.7101	-1.1390	24.95	-0.13	-0.050			
0.3473	22226.93	3.7090	3.7090	-1.1431	24.93	-0.15	-0.050			
0.3484	22299.48	3.7080	3.7080	-1.1514	24.92	-0.16	-0.050			
0.3496	22372.57	3.7070	3.7067	-1.1538	24.90	-0.18	-0.050			
0.3507	22445.74	3.7060	3.7060	-1.1612	24.88	-0.20	-0.050			
0.3519	22520.19	3.7050	3.7048	-1.1698	24.86	-0.22	-0.050			
0.3530	22593.27	3.7040	3.7041	-1.1749	24.84	-0.24	-0.050			
0.3542	22669.28	3.7030	3.7031	-1.1850	24.83	-0.25	-0.050			
0.3554	22745.39	3.7020	3.7017	-1.1950	24.81	-0.27	-0.050			
0.3566	22821.11	3.7010	3.7011	-1.2109	24.80	-0.28	-0.050			
0.3578	22898.59	3.7000	3.6999	-1.2202	24.79	-0.29	-0.050			
0.3590	22976.72	3.6990	3.6992	-1.2326	24.79	-0.29	-0.050			
0.3603	23056.29	3.6980	3.6983	-1.2429	24.79	-0.29	-0.050	0.235	0.673	
0.3615	23136.12	3.6970	3.6968	-1.2553	24.80	-0.28	-0.050			
0.3628	23216.52	3.6960	3.6960	-1.2661	24.81	-0.27	-0.050			
0.3640	23299.10	3.6950	3.6951	-1.2774	24.82	-0.26	-0.050			
0.3653	23380.77	3.6940	3.6941	-1.2868	24.84	-0.24	-0.050			
0.3666	23464.63	3.6930	3.6929	-1.2981	24.85	-0.23	-0.050			
0.3680	23548.87	3.6920	3.6920	-1.3089	24.88	-0.20	-0.050			
0.3693	23633.21	3.6910	3.6913	-1.3207	24.89	-0.19	-0.050			
0.3706	23718.87	3.6900	3.6898	-1.3283	24.91	-0.17	-0.050			
0.3719	23804.38	3.6890	3.6889	-1.3381	24.93	-0.15	-0.050			
0.3733	23889.47	3.6880	3.6879	-1.3488	24.95	-0.13	-0.050			
0.3746	23976.23	3.6870	3.6870	-1.3587	24.98	-0.10	-0.050			
0.3760	24062.97	3.6860	3.6861	-1.3687	25.00	-0.08	-0.050			
0.3773	24150.30	3.6850	3.6849	-1.3801	25.01	-0.07	-0.050			
0.3787	24238.54	3.6840	3.6840	-1.3907	25.04	-0.04	-0.050			
0.3801	24328.28	3.6830	3.6830	-1.4011	25.06	-0.02	-0.050	0.464	0.618	
0.3815	24416.83	3.6820	3.6817	-1.4102	25.08	-0.00	-0.050			
0.3829	24506.46	3.6810	3.6812	-1.4211	25.10	0.02	-0.050			
0.3844	24598.68	3.6800	3.6797	-1.4375	25.11	0.03	-0.050			
0.3858	24690.48	3.6790	3.6791	-1.4499	25.11	0.03	-0.050			
0.3872	24782.93	3.6780	3.6782	-1.4678	25.13	0.05	-0.050			
0.3887	24876.78	3.6770	3.6769	-1.4817	25.12	0.04	-0.050			
0.3902	24972.72	3.6760	3.6759	-1.4954	25.13	0.05	-0.050			
0.3917	25069.02	3.6750	3.6751	-1.5142	25.13	0.05	-0.050			
0.3932	25165.86	3.6740	3.6741	-1.5292	25.14	0.06	-0.050			
0.3948	25264.10	3.6730	3.6729	-1.5461	25.14	0.06	-0.050			
0.3963	25364.21	3.6720	3.6722	-1.5580	25.13	0.05	-0.050			
0.3979	25465.13	3.6710	3.6709	-1.5727	25.12	0.04	-0.050			
0.3995	25567.26	3.6700	3.6698	-1.5858	25.12	0.04	-0.050			
0.4011	25669.10	3.6690	3.6692	-1.5965	25.12	0.04	-0.050	0.512	0.600	
0.4027	25772.55	3.6680	3.6681	-1.6080	25.12	0.04	-0.050			
0.4043	25876.41	3.6670	3.6670	-1.6228	25.12	0.04	-0.050			
0.4060	25981.05	3.6660	3.6662	-1.6328	25.10	0.02	-0.050			
0.4076	26086.41	3.6650	3.6650	-1.6444	25.11	0.03	-0.050			
0.4093	26193.06	3.6640	3.6641	-1.6554	25.09	0.01	-0.050			
0.4109	26299.60	3.6630	3.6631	-1.6657	25.09	0.01	-0.050			
0.4126	26405.74	3.6620	3.6618	-1.6768	25.08	0.00	-0.050			
0.4143	26513.11	3.6610	3.6609	-1.6869	25.06	-0.02	-0.050			
0.4159	26620.34	3.6600	3.6601	-1.6990	25.03	-0.05	-0.050			
0.4176	26728.21	3.6590	3.6590	-1.7079	25.01	-0.07	-0.050			
0.4193	26837.79	3.6580	3.6578	-1.7206	24.99	-0.09	-0.050			
0.4211	26947.59	3.6570	3.6569	-1.7382	24.95	-0.13	-0.050	-0.049	0.624	
0.4228	27057.36	3.6560	3.6560	-1.7541	24.92	-0.16	-0.050			
0.4245	27169.24	3.6550	3.6549	-1.7691	24.91	-0.17	-0.050			
0.4263	27282.18	3.6540	3.6540	-1.7900	24.90	-0.18	-0.050			
0.4281	27396.29	3.6530	3.6528	-1.8099	24.90	-0.18	-0.050			
0.4299	27514.19	3.6520	3.6521	-1.8301	24.91	-0.17	-0.050			
0.4317	27631.26	3.6510	3.6510	-1.8469	24.92	-0.16	-0.050			
0.4336	27749.73	3.6500	3.6500	-1.8687	24.94	-0.14	-0.050			
0.4355	27870.06	3.6490	3.6491	-1.8899	24.98	-0.10	-0.050			
0.4374	27992.09	3.6480	3.6478	-1.9098	25.01	-0.07	-0.050			
0.4393	28116.07	3.6470	3.6469	-1.9306	25.04	-0.04	-0.050			
0.4413	28240.41	3.6460	3.6461	-1.9463	25.07	-0.01	-0.050			
0.4432	28366.22	3.6450	3.6449	-1.9700	25.09	0.01	-0.050			
0.4452	28492.68	3.6440	3.6441	-1.9876	25.10	0.02	-0.050			
0.4472	28620.81	3.6430	3.6429	-2.0077	25.11	0.03	-0.050			
0.4492	28750.69	3.6420	3.6419	-2.0225	25.11	0.03	-0.050			
0.4513	28881.75	3.6410	3.6408	-2.0401	25.12	0.04	-0.050			
0.4533	29012.63	3.6400	3.6399	-2.0570	25.11	0.03	-0.050			
0.4554	29145.50	3.6390	3.6391	-2.0756	25.11	0.03	-0.050			
0.4575	29279.48	3.6380	3.6382	-2.0895	25.11	0.03	-0.050			
0.4596	29412.90	3.6370	3.6369	-2.1035	25.10	0.02	-0.050	0.432	0.833	
0.4617	29548.54	3.6360	3.6357	-2.1163	25.10	0.02	-0.050			
0.4638	29684.23	3.6350	3.6349	-2.1357	25.10	0.02	-0.050			
0.4659	29820.76	3.6340	3.6343	-2.1505	25.10	0.02	-0.050			
0.4682	29961.74	3.6330	3.6332	-2.1635	25.10	0.02	-0.050			
0.4703	30101.73	3.6320	3.6319	-2.1718	25.09	0.01	-0.050			
0.4725	30242.65	3.6310	3.6310	-2.1748	25.09	0.01	-0.050			
0.4747	30382.85	3.6300	3.6299	-2.1856	25.08	0.00	-0.050			
0.4769	30522.89	3.6290	3.6288	-2.1911	25.08	0.00	-0.050			
0.4791	30665.44	3.6280	3.6280	-2.1985	25.08	0.00	-0.050			
0.4813	30806.26	3.6270	3.6269	-2.2029	25.09	0.01	-0.050	0.550	0.681	
0.4836	30947.25	3.6260	3.6261	-2.2060	25.07	-0.01	-0.050			
0.4858	31089.45	3.6250	3.6251	-2.2120	25.06	-0.02	-0.050			
0.4880	31230.57	3.6240	3.6239	-2.2176	25.03	-0.05	-0.050			
0.4902	31372.87	3.6230	3.6230	-2.2227	25.01	-0.07	-0.050			
0.4924	31516.23	3.6220	3.6221	-2.2187	24.99	-0.09	-0.050			
0.4946	31657.44	3.6210	3.6212	-2.2206	24.98	-0.10	-0.050			
0.4969	31799.48	3.6200	3.6199	-2.2221	24.98	-0.10	-0.050			
0.4991	31941.90	3.6190	3.6191	-2.2243	24.96	-0.12	-0.050			
0.5013	32084.71	3.6180	3.6178	-2.2216	24.96	-0.12	-0.050	0.197	0.584	
0.5035	32227.17	3.6170	3.6169	-2.2231	24.97	-0.11	-0.050			
0.5058	32369.20	3.6160	3.6158	-2.2206	24.99	-0.09	-0.050			
0.5080	32512.74	3.6150	3.6150	-2.2247	25.02	-0.06	-0.050			
0.5103	32659.10	3.6140	3.6141	-2.2198	25.05	-0.03	-0.050			
0.5125	32801.93	3.6130	3.6128	-2.2095	25.07	-0.01	-0.050			
0.5148	32945.39	3.6120	3.6120	-2.2006	25.08	-0.00	-0.050			
0.5170	33086.65	3.6110	3.6110	-2.1850	25.09	0.01	-0.050			
0.5192	33228.20	3.6100	3.6099	-2.1701	25.09	0.01	-0.050			
0.5214	33367.94	3.6090	3.6089	-2.1549	25.09	0.01	-0.050	0.345	0.588	
0.5235	33505.22	3.6080	3.6080	-2.1369	25.08	0.00	-0.050			
0.5257	33643.21	3.6070	3.6071	-2.1185	25.09	0.01	-0.050			
0.5278	33777.96	3.6060	3.6061	-2.0963	25.09	0.01	-0.050			
0.5299	33911.64	3.6050	3.6050	-2.0762	25.08	-0.00	-0.050			
0.5320	34045.73	3.6040	3.6039	-2.0550	25.06	-0.02	-0.050			
0.5340	34177.30	3.6030	3.6030	-2.0308	25.05	-0.03	-0.050			
0.5360	34305.53	3.6020	3.6020	-2.0013	25.02	-0.06	-0.050			
0.5380	34432.92	3.6010	3.6010	-1.9821	24.99	-0.09	-0.050			
0.5400	34559.14	3.6000	3.6000	-1.9544	24.96	-0.12	-0.050	0.461	0.673	
0.5419	34683.22	3.5990	3.5992	-1.9326	24.93	-0.15	-0.050			
0.5438	34804.10	3.5980	3.5979	-1.9093	24.89	-0.19	-0.050			
0.5457	34924.93	3.5970	3.5973	-1.8882	24.87	-0.21	-0.050			
0.5476	35045.55	3.5960	3.5961	-1.8653	24.84	-0.24	-0.050			
0.5494	35164.53	3.5950	3.5949	-1.8480	24.81	-0.27	-0.050			
0.5513	35281.09	3.5940	3.5940	-1.8271	24.81	-0.27	-0.050			
0.5531	35396.28	3.5930	3.5929	-1.8064	24.81	-0.27	-0.050			
0.5549	35510.92	3.5920	3.5920	-1.7902	24.81	-0.27	-0.050			
0.5566	35623.79	3.5910	3.5911	-1.7758	24.81	-0.27	-0.050			
0.5584	35735.80	3.5900	3.5897	-1.7572	24.82	-0.26	-0.050			
0.5601	35845.45	3.5890	3.5891	-1.7453	24.82	-0.26	-0.050	0.275	0.810	
0.5618	35956.19	3.5880	3.5879	-1.7327	24.83	-0.25	-0.050			
0.5635	36065.88	3.5870	3.5870	-1.7261	24.84	-0.24	-0.050			
0.5652	36174.91	3.5860	3.5858	-1.7167	24.84	-0.24	-0.050			
0.5670	36285.25	3.5850	3.5851	-1.7077	24.85	-0.23	-0.050			
0.5687	36394.59	3.5840	3.5839	-1.7014	24.85	-0.23	-0.050			
0.5704	36503.39	3.5830	3.5829	-1.6895	24.86	-0.22	-0.050			
0.5721	36611.56	3.5820	3.5818	-1.6768	24.86	-0.22	-0.050			
0.5737	36719.24	3.5810	3.5809	-1.6649	24.87	-0.21	-0.050			
0.5754	36827.06	3.5800	3.5798	-1.6549	24.86	-0.22	-0.050			
0.5771	36931.40	3.5790	3.5791	-1.6443	24.87	-0.21	-0.050			
0.5787	37036.71	3.5780	3.5779	-1.6345	24.88	-0.20	-0.050			
0.5804	37142.60	3.5770	3.5769	-1.6250	24.88	-0.20	-0.050	0.366	0.615	
0.5820	37247.18	3.5760	3.5761	-1.6125	24.89	-0.19	-0.050			
0.5836	37348.74	3.5750	3.5751	-1.6012	24.90	-0.18	-0.050			
0.5852	37450.88	3.5740	3.5742	-1.5901	24.91	-0.17	-0.050			
0.5867	37550.98	3.5730	3.5733	-1.5840	24.91	-0.17	-0.050			
0.5883	37651.43	3.5720	3.5719	-1.5727	24.91	-0.17	-0.050			
0.5898	37749.91	3.5710	3.5711	-1.5637	24.92	-0.16	-0.050			
0.5914	37849.66	3.5700	3.5697	-1.5552	24.93	-0.15	-0.050			
0.5929	37947.77	3.5690	3.5692	-1.5427	24.93	-0.15	-0.050			
0.5945	38046.91	3.5680	3.5681	-1.5357	24.94	-0.14	-0.050			
0.5960	38144.56	3.5670	3.5669	-1.5287	24.94	-0.14	-0.050			
0.5975	38241.43	3.5660	3.5658	-1.5246	24.95	-0.13	-0.050			
0.5991	38339.56	3.5650	3.5652	-1.5213	24.96	-0.12	-0.050			
0.6006	38437.26	3.5640	3.5640	-1.5124	24.95	-0.13	-0.050			
0.6021	38535.86	3.5630	3.5631	-1.5055	24.97	-0.11	-0.050			
0.6036	38632.54	3.5620	3.5620	-1.4964	24.98	-0.10	-0.050			
0.6051	38728.52	3.5610	3.5609	-1.4864	24.98	-0.10	-0.050			
0.6066	38824.40	3.5600	3.5599	-1.4717	24.99	-0.09	-0.050			
0.6081	38918.26	3.5590	3.5588	-1.4566	25.00	-0.08	-0.050			
0.6096	39011.90	3.5580	3.5580	-1.4507	25.02	-0.06	-0.050			
0.6110	39103.38	3.5570	3.5570	-1.4441	25.03	-0.05	-0.050			
0.6124	39194.66	3.5560	3.5562	-1.4338	25.04	-0.04	-0.050			
0.6138	39284.96	3.5550	3.5553	-1.4200	25.06	-0.02	-0.050			
0.6152	39375.25	3.5540	3.5539	-1.4123	25.06	-0.02	-0.050			
0.6166	39463.56	3.5530	3.5531	-1.4065	25.07	-0.01	-0.050			
0.6180	39553.01	3.5520	3.5520	-1.4041	25.08	0.00	-0.050			
0.6194	39641.80	3.5510	3.5511	-1.3960	25.09	0.01	-0.050			
0.6208	39731.70	3.5500	3.5499	-1.3914	25.11	0.03	-0.050	0.256	0.508	
0.6222	39820.16	3.5490	3.5488	-1.3852	25.12	0.04	-0.050			
0.6236	39907.58	3.5480	3.5479	-1.3754	25.14	0.06	-0.050			
0.6249	39994.86	3.5470	3.5470	-1.3711	25.16	0.08	-0.050			
0.6263	40083.54	3.5460	3.5458	-1.3630	25.19	0.11	-0.050			
0.6277	40172.50	3.5450	3.5449	-1.3571	25.20	0.12	-0.050			
0.6291	40260.45	3.5440	3.5439	-1.3529	25.21	0.13	-0.050			
0.6304	40347.39	3.5430	3.5430	-1.3474	25.23	0.15	-0.050			
0.6318	40434.64	3.5420	3.5420	-1.3383	25.24	0.16	-0.050			
0.6331	40520.57	3.5410	3.5410	-1.3318	25.27	0.19	-0.050			
0.6345	40606.96	3.5400	3.5400	-1.3198	25.28	0.20	-0.050			
0.6358	40690.13	3.5390	3.5391	-1.3056	25.29	0.21	-0.050			
0.6371	40772.97	3.5380	3.5379	-1.2901	25.29	0.21	-0.050			
0.6384	40855.45	3.5370	3.5371	-1.2789	25.30	0.22	-0.050			
0.6397	40938.27	3.5360	3.5357	-1.2679	25.30	0.22	-0.050			
0.6409	41018.91	3.5350	3.5346	-1.2556	25.30	0.22	-0.050	0.340	0.619	
0.6422	41097.74	3.5340	3.5340	-1.2411	25.29	0.21	-0.050			
0.6434	41175.46	3.5330	3.5332	-1.2278	25.29	0.21	-0.050			
0.6446	41253.99	3.5320	3.5318	-1.2172	25.29	0.21	-0.050			
0.6458	41332.21	3.5310	3.5313	-1.2077	25.29	0.21	-0.050			
0.6470	41408.71	3.5300	3.5300	-1.1968	25.28	0.20	-0.050			
0.6482	41484.12	3.5290	3.5291	-1.1873	25.27	0.19	-0.050			
0.6494	41559.37	3.5280	3.5279	-1.1780	25.27	0.19	-0.050			
0.6505	41633.23	3.5270	3.5271	-1.1701	25.26	0.18	-0.050			
0.6517	41708.02	3.5260	3.5260	-1.1641	25.25	0.17	-0.050			
0.6528	41781.08	3.5250	3.5250	-1.1559	25.25	0.17	-0.050			
0.6540	41853.64	3.5240	3.5239	-1.1469	25.24	0.16	-0.050			
0.6551	41926.45	3.5230	3.5231	-1.1426	25.24	0.16	-0.050			
0.6562	41999.15	3.5220	3.5219	-1.1398	25.23	0.15	-0.050			
0.6574	42070.57	3.5210	3.5210	-1.1390	25.22	0.14	-0.050			
0.6585	42143.68	3.5200	3.5199	-1.1410	25.21	0.13	-0.050			
0.6596	42216.11	3.5190	3.5189	-1.1363	25.21	0.13	-0.050			
0.6608	42289.86	3.5180	3.5181	-1.1297	25.20	0.12	-0.050			
0.6619	42361.24	3.5170	3.5170	-1.1288	25.20	0.12	-0.050			
0.6630	42434.21	3.5160	3.5160	-1.1275	25.20	0.12	-0.050			
0.6642	42507.08	3.5150	3.5150	-1.1245	25.19	0.11	-0.050			
0.6653	42579.08	3.5140	3.5140	-1.1198	25.19	0.11	-0.050			
0.6664	42651.27	3.5130	3.5130	-1.1165	25.19	0.11	-0.050			
0.6675	42722.85	3.5120	3.5120	-1.1155	25.19	0.11	-0.050			
0.6686	42793.22	3.5110	3.5111	-1.1166	25.19	0.11	-0.050			
0.6698	42864.63	3.5100	3.5102	-1.1130	25.19	0.11	-0.050			
0.6709	42935.56	3.5090	3.5089	-1.1108	25.19	0.11	-0.050			
0.6720	43006.24	3.5080	3.5078	-1.1110	25.19	0.11	-0.050			
0.6731	43075.99	3.5070	3.5071	-1.1111	25.19	0.11	-0.050			
0.6742	43147.43	3.5060	3.5058	-1.1097	25.18	0.10	-0.050			
0.6753	43217.66	3.5050	3.5049	-1.1091	25.19	0.11	-0.050			
0.6764	43288.63	3.5040	3.5039	-1.1108	25.19	0.11	-0.050			
0.6775	43358.85	3.5030	3.5028	-1.1093	25.19	0.11	-0.050			
0.6786	43429.09	3.5020	3.5019	-1.1101	25.18	0.10	-0.050			
0.6797	43500.19	3.5010	3.5012	-1.1094	25.18	0.10	-0.050			
0.6808	43571.95	3.5000	3.5001	-1.1141	25.20	0.12	-0.050	0.333	0.604	
0.6819	43643.73	3.4990	3.4989	-1.1176	25.19	0.11	-0.050			
0.6831	43715.80	3.4980	3.4983	-1.1215	25.19	0.11	-0.050			
0.6842	43786.32	3.4970	3.4972	-1.1213	25.18	0.10	-0.050			
0.6853	43858.71	3.4960	3.4959	-1.1246	25.19	0.11	-0.050			
0.6864	43931.65	3.4950	3.4951	-1.1274	25.20	0.12	-0.050			
0.6876	44003.82	3.4940	3.4941	-1.1280	25.20	0.12	-0.050			
0.6887	44075.82	3.4930	3.4930	-1.1290	25.21	0.13	-0.050			
0.6898	44147.17	3.4920	3.4920	-1.1296	25.22	0.14	-0.050			
0.6909	44219.36	3.4910	3.4907	-1.1340	25.21	0.13	-0.050			
0.6921	44292.81	3.4900	3.4900	-1.1381	25.21	0.13	-0.050			
0.6932	44363.94	3.4890	3.4889	-1.1420	25.21	0.13	-0.050			
0.6943	44436.37	3.4880	3.4881	-1.1452	25.20	0.12	-0.050			
0.6955	44510.01	3.4870	3.4870	-1.1497	25.20	0.12	-0.050			
0.6966	44583.65	3.4860	3.4860	-1.1552	25.19	0.11	-0.050			
0.6978	44657.48	3.4850	3.4849	-1.1614	25.19	0.11	-0.050			
0.6989	44730.85	3.4840	3.4841	-1.1702	25.19	0.11	-0.050			
0.7001	44804.99	3.4830	3.4829	-1.1797	25.18	0.10	-0.050	0.108	0.674	
0.7013	44880.25	3.4820	3.4820	-1.1882	25.18	0.10	-0.050			
0.7025	44957.57	3.4810	3.4810	-1.1954	25.17	0.09	-0.050			
0.7037	45033.74	3.4800	3.4799	-1.2033	25.16	0.08	-0.050			
0.7049	45111.01	3.4790	3.4790	-1.2118	25.16	0.08	-0.050			
0.7061	45188.88	3.4780	3.4780	-1.2206	25.16	0.08	-0.050			
0.7073	45266.66	3.4770	3.4769	-1.2331	25.16	0.08	-0.050			
0.7085	45345.71	3.4760	3.4759	-1.2457	25.16	0.08	-0.050			
0.7098	45426.27	3.4750	3.4749	-1.2567	25.15	0.07	-0.050			
0.7111	45507.56	3.4740	3.4742	-1.2661	25.14	0.06	-0.050			
0.7123	45588.94	3.4730	3.4730	-1.2756	25.13	0.05	-0.050			
0.7136	45670.94	3.4720	3.4722	-1.2845	25.13	0.05	-0.050			
0.7149	45754.43	3.4710	3.4709	-1.2917	25.13	0.05	-0.050			
0.7162	45837.64	3.4700	3.4699	-1.3001	25.13	0.05	-0.050			
0.7175	45922.10	3.4690	3.4690	-1.3037	25.13	0.05	-0.050			
0.7189	46007.14	3.4680	3.4679	-1.3122	25.12	0.04	-0.050			
0.7202	46092.20	3.4670	3.4670	-1.3155	25.11	0.03	-0.050			
0.7215	46176.62	3.4660	3.4659	-1.3193	25.10	0.02	-0.050			
0.7228	46261.60	3.4650	3.4650	-1.3209	25.09	0.01	-0.050			
0.7242	46346.95	3.4640	3.4639	-1.3206	25.09	0.01	-0.050			
0.7255	46432.97	3.4630	3.4631	-1.3210	25.08	0.00	-0.050			
0.7269	46519.28	3.4620	3.4619	-1.3207	25.07	-0.01	-0.050			
0.7282	46605.99	3.4610	3.4610	-1.3167	25.06	-0.02	-0.050			
0.7295	46689.86	3.4600	3.4601	-1.3101	25.06	-0.02	-0.050			
0.7308	46774.10	3.4590	3.4588	-1.3046	25.06	-0.02	-0.050			
0.7322	46857.85	3.4580	3.4580	-1.2951	25.05	-0.03	-0.050			
0.7335	46941.28	3.4570	3.4569	-1.2816	25.04	-0.04	-0.050			
0.7348	47024.20	3.4560	3.4562	-1.2719	25.03	-0.05	-0.050			
0.7360	47106.76	3.4550	3.4550	-1.2601	25.01	-0.07	-0.050			
0.7373	47188.02	3.4540	3.4540	-1.2454	25.00	-0.08	-0.050			
0.7386	47267.74	3.4530	3.4530	-1.2321	24.99	-0.09	-0.050			
0.7398	47347.07	3.4520	3.4519	-1.2159	24.99	-0.09	-0.050			
0.7410	47425.81	3.4510	3.4509	-1.1970	24.98	-0.10	-0.050	0.208	0.683	
0.7422	47501.77	3.4500	3.4501	-1.1790	24.98	-0.10	-0.050			
0.7434	47577.51	3.4490	3.4491	-1.1620	24.97	-0.11	-0.050			
0.7446	47651.28	3.4480	3.4481	-1.1397	24.98	-0.10	-0.050			
0.7457	47724.21	3.4470	3.4466	-1.1183	24.98	-0.10	-0.050			
0.7468	47795.45	3.4460	3.4461	-1.0973	24.99	-0.09	-0.050			
0.7479	47865.99	3.4450	3.4449	-1.0734	24.99	-0.09	-0.050			
0.7490	47934.16	3.4440	3.4439	-1.0515	25.00	-0.08	-0.050			
0.7500	48000.97	3.4430	3.4431	-1.0291	25.00	-0.08	-0.050			
0.7510	48066.16	3.4420	3.4419	-1.0079	25.01	-0.07	-0.050			
0.7520	48129.09	3.4410	3.4410	-0.9859	25.02	-0.06	-0.050			
0.7530	48190.17	3.4400	3.4402	-0.9624	25.04	-0.04	-0.050			
0.7539	48251.20	3.4390	3.4391	-0.9420	25.05	-0.03	-0.050			
0.7549	48311.64	3.4380	3.4381	-0.9212	25.05	-0.03	-0.050			
0.7558	48370.04	3.4370	3.4370	-0.9004	25.08	0.00	-0.050			
0.7567	48425.86	3.4360	3.4361	-0.8779	25.08	0.00	-0.050			
0.7575	48481.67	3.4350	3.4347	-0.8577	25.09	0.01	-0.050			
0.7584	48535.13	3.4340	3.4340	-0.8362	25.11	0.03	-0.050			
0.7592	48587.31	3.4330	3.4330	-0.8157	25.12	0.04	-0.050			
0.7600	48638.85	3.4320	3.4320	-0.7982	25.13	0.05	-0.050			
0.7608	48689.41	3.4310	3.4312	-0.7789	25.13	0.05	-0.050	0.410	0.627	
0.7615	48738.02	3.4300	3.4301	-0.7572	25.14	0.06	-0.050			
0.7623	48786.05	3.4290	3.4290	-0.7377	25.14	0.06	-0.050			
0.7630	48833.52	3.4280	3.4278	-0.7196	25.14	0.06	-0.050			
0.7637	48879.55	3.4270	3.4268	-0.7011	25.15	0.07	-0.050			
0.7644	48923.83	3.4260	3.4260	-0.6818	25.15	0.07	-0.050			
0.7651	48967.00	3.4250	3.4250	-0.6640	25.15	0.07	-0.050			
0.7658	49008.22	3.4240	3.4239	-0.6455	25.15	0.07	-0.050			
0.7664	49047.70	3.4230	3.4231	-0.6271	25.15	0.07	-0.050			
0.7670	49086.64	3.4220	3.4222	-0.6084	25.15	0.07	-0.050			
0.7676	49124.48	3.4210	3.4211	-0.5934	25.15	0.07	-0.050			
0.7681	49160.84	3.4200	3.4201	-0.5785	25.15	0.07	-0.050			
0.7687	49197.42	3.4190	3.4190	-0.5651	25.16	0.08	-0.050			
0.7693	49232.91	3.4180	3.4180	-0.5502	25.16	0.08	-0.050			
0.7698	49266.84	3.4170	3.4169	-0.5370	25.16	0.08	-0.050			
0.7703	49299.83	3.4160	3.4160	-0.5230	25.15	0.07	-0.050			
0.7708	49332.35	3.4150	3.4148	-0.5099	25.15	0.07	-0.050			
0.7713	49364.18	3.4140	3.4141	-0.4991	25.15	0.07	-0.050			
0.7718	49394.80	3.4130	3.4129	-0.4882	25.15	0.07	-0.050			
0.7723	49425.27	3.4120	3.4120	-0.4778	25.15	0.07	-0.050			
0.7727	49455.22	3.4110	3.4111	-0.4686	25.15	0.07	-0.050			
0.7732	49484.99	3.4100	3.4101	-0.4616	25.15	0.07	-0.050			
0.7737	49514.36	3.4090	3.4091	-0.4533	25.15	0.07	-0.050			
0.7741	49543.13	3.4080	3.4079	-0.4447	25.15	0.07	-0.050			
0.7746	49571.31	3.4070	3.4070	-0.4360	25.15	0.07	-0.050			
0.7750	49598.84	3.4060	3.4060	-0.4274	25.15	0.07	-0.050			
0.7754	49625.64	3.4050	3.4049	-0.4184	25.15	0.07	-0.050			
0.7758	49652.00	3.4040	3.4040	-0.4092	25.15	0.07	-0.050			
0.7762	49677.72	3.4030	3.4028	-0.4006	25.15	0.07	-0.050			
0.7766	49702.67	3.4020	3.4021	-0.3946	25.15	0.07	-0.050			
0.7770	49727.44	3.4010	3.4011	-0.3870	25.15	0.07	-0.050			
0.7774	49751.60	3.4000	3.4000	-0.3808	25.15	0.07	-0.050			
0.7777	49775.88	3.3990	3.3990	-0.3736	25.15	0.07	-0.050			
0.7781	49799.57	3.3980	3.3981	-0.3670	25.14	0.06	-0.050			
0.7785	49822.60	3.3970	3.3971	-0.3626	25.14	0.06	-0.050			
0.7788	49845.28	3.3960	3.3959	-0.3557	25.15	0.07	-0.050			
0.7792	49867.70	3.3950	3.3949	-0.3503	25.15	0.07	-0.050			
0.7795	49889.87	3.3940	3.3939	-0.3445	25.15	0.07	-0.050			
0.7799	49911.13	3.3930	3.3927	-0.3383	25.15	0.07	-0.050			
0.7802	49932.62	3.3920	3.3920	-0.3333	25.15	0.07	-0.050			
0.7805	49953.32	3.3910	3.3909	-0.3276	25.14	0.06	-0.050	0.509	0.673	
0.7808	49973.44	3.3900	3.3901	-0.3246	25.14	0.06	-0.050			
0.7812	49993.93	3.3890	3.3891	-0.3215	25.15	0.07	-0.050			
0.7815	50014.04	3.3880	3.3879	-0.3173	25.15	0.07	-0.050			
0.7818	50034.25	3.3870	3.3869	-0.3142	25.15	0.07	-0.050			
0.7821	50054.36	3.3860	3.3861	-0.3117	25.15	0.07	-0.050			
0.7824	50074.21	3.3850	3.3851	-0.3086	25.15	0.07	-0.050			
0.7827	50093.75	3.3840	3.3838	-0.3055	25.15	0.07	-0.050			
0.7830	50113.21	3.3830	3.3830	-0.3025	25.15	0.07	-0.050			
0.7833	50132.67	3.3820	3.3819	-0.2985	25.15	0.07	-0.050			
0.7836	50151.67	3.3810	3.3809	-0.2953	25.14	0.06	-0.050			
0.7839	50169.93	3.3800	3.3800	-0.2914	25.14	0.06	-0.050			
0.7842	50188.68	3.3790	3.3793	-0.2891	25.14	0.06	-0.050			
0.7845	50207.09	3.3780	3.3780	-0.2861	25.14	0.06	-0.050			
0.7848	50225.76	3.3770	3.3770	-0.2843	25.14	0.06	-0.050			
0.7851	50243.85	3.3760	3.3760	-0.2809	25.14	0.06	-0.050			
0.7853	50261.35	3.3750	3.3751	-0.2768	25.14	0.06	-0.050			
0.7856	50278.95	3.3740	3.3740	-0.2739	25.14	0.06	-0.050			
0.7859	50296.89	3.3730	3.3731	-0.2719	25.14	0.06	-0.050			
0.7862	50313.84	3.3720	3.3720	-0.2695	25.15	0.07	-0.050			
0.7864	50330.99	3.3710	3.3709	-0.2664	25.15	0.07	-0.050			
0.7867	50347.77	3.3700	3.3699	-0.2631	25.15	0.07	-0.050			
0.7869	50363.33	3.3690	3.3689	-0.2604	25.14	0.06	-0.050			
0.7872	50379.95	3.3680	3.3680	-0.2588	25.14	0.06	-0.050			
0.7874	50396.72	3.3670	3.3671	-0.2564	25.14	0.06	-0.050			
0.7877	50413.00	3.3660	3.3659	-0.2544	25.14	0.06	-0.050			
0.7880	50429.22	3.3650	3.3650	-0.2526	25.14	0.06	-0.050			
0.7882	50445.49	3.3640	3.3641	-0.2496	25.14	0.06	-0.050			
0.7885	50461.40	3.3630	3.3631	-0.2476	25.14	0.06	-0.050			
0.7887	50477.26	3.3620	3.3618	-0.2457	25.14	0.06	-0.050			
0.7889	50492.71	3.3610	3.3609	-0.2444	25.14	0.06	-0.050			
0.7892	50508.29	3.3600	3.3599	-0.2425	25.14	0.06	-0.050			
0.7894	50523.88	3.3590	3.3591	-0.2415	25.15	0.07	-0.050			
0.7897	50539.28	3.3580	3.3582	-0.2395	25.15	0.07	-0.050			
0.7899	50554.35	3.3570	3.3571	-0.2373	25.15	0.07	-0.050			
0.7901	50569.25	3.3560	3.3562	-0.2362	25.15	0.07	-0.050			
0.7904	50584.32	3.3550	3.3549	-0.2347	25.14	0.06	-0.050			
0.7906	50599.32	3.3540	3.3540	-0.2332	25.14	0.06	-0.050			
0.7908	50614.23	3.3530	3.3529	-0.2316	25.14	0.06	-0.050			
0.7911	50628.93	3.3520	3.3519	-0.2299	25.14	0.06	-0.050			
0.7913	50643.60	3.3510	3.3507	-0.2284	25.14	0.06	-0.050			
0.7915	50658.09	3.3500	3.3499	-0.2272	25.14	0.06	-0.050			
0.7918	50672.26	3.3490	3.3491	-0.2252	25.14	0.06	-0.050			
0.7920	50686.63	3.3480	3.3481	-0.2241	25.14	0.06	-0.050			
0.7922	50700.54	3.3470	3.3471	-0.2223	25.14	0.06	-0.050			
0.7924	50714.74	3.3460	3.3460	-0.2216	25.14	0.06	-0.050			
0.7926	50728.90	3.3450	3.3451	-0.2209	25.14	0.06	-0.050			
0.7929	50743.60	3.3440	3.3440	-0.2206	25.14	0.06	-0.050			
0.7931	50757.68	3.3430	3.3430	-0.2193	25.14	0.06	-0.050			
0.7933	50771.67	3.3420	3.3419	-0.2181	25.14	0.06	-0.050			
0.7935	50785.84	3.3410	3.3409	-0.2168	25.14	0.06	-0.050			
0.7937	50799.66	3.3400	3.3400	-0.2153	25.14	0.06	-0.050			
0.7940	50813.13	3.3390	3.3391	-0.2133	25.14	0.06	-0.050			
0.7942	50826.55	3.3380	3.3379	-0.2127	25.14	0.06	-0.050			
0.7944	50840.13	3.3370	3.3370	-0.2117	25.14	0.06	-0.050			
0.7946	50853.64	3.3360	3.3360	-0.2106	25.13	0.05	-0.050			
0.7948	50867.11	3.3350	3.3350	-0.2095	25.13	0.05	-0.050			
0.7950	50880.49	3.3340	3.3341	-0.2085	25.13	0.05	-0.050			
0.7952	50893.66	3.3330	3.3332	-0.2072	25.13	0.05	-0.050			
0.7954	50907.14	3.3320	3.3320	-0.2055	25.13	0.05	-0.050			
0.7956	50920.25	3.3310	3.3309	-0.2043	25.13	0.05	-0.050			
0.7958	50933.57	3.3300	3.3297	-0.2036	25.13	0.05	-0.050			
0.7960	50946.15	3.3290	3.3289	-0.2033	25.13	0.05	-0.050			
0.7962	50959.13	3.3280	3.3280	-0.2023	25.12	0.04	-0.050			
0.7964	50971.86	3.3270	3.3272	-0.2009	25.12	0.04	-0.050			
0.7966	50984.62	3.3260	3.3261	-0.2003	25.12	0.04	-0.050			
0.7968	50997.41	3.3250	3.3250	-0.1995	25.12	0.04	-0.050			
0.7970	51009.94	3.3240	3.3241	-0.1983	25.12	0.04	-0.050			
0.7972	51022.61	3.3230	3.3231	-0.1977	25.12	0.04	-0.050			
0.7974	51035.44	3.3220	3.3220	-0.1962	25.12	0.04	-0.050			
0.7976	51048.06	3.3210	3.3208	-0.1955	25.12	0.04	-0.050			
0.7978	51060.55	3.3200	3.3198	-0.1946	25.11	0.03	-0.050			
0.7980	51073.06	3.3190	3.3189	-0.1934	25.11	0.03	-0.050			
0.7982	51085.52	3.3180	3.3179	-0.1927	25.11	0.03	-0.050			
0.7984	51097.81	3.3170	3.3171	-0.1916	25.10	0.02	-0.050			
0.7986	51110.04	3.3160	3.3160	-0.1905	25.10	0.02	-0.050			
0.7988	51122.10	3.3150	3.3152	-0.1890	25.10	0.02	-0.050			
0.7990	51134.16	3.3140	3.3140	-0.1879	25.09	0.01	-0.050			
0.7992	51146.16	3.3130	3.3131	-0.1869	25.09	0.01	-0.050			
0.7993	51158.17	3.3120	3.3121	-0.1867	25.09	0.01	-0.050			
0.7995	51170.09	3.3110	3.3111	-0.1856	25.09	0.01	-0.050			
0.7997	51181.93	3.3100	3.3100	-0.1845	25.09	0.01	-0.050			
0.7999	51193.93	3.3090	3.3089	-0.1837	25.09	0.01	-0.050			
0.8001	51205.44	3.3080	3.3079	-0.1830	25.09	0.01	-0.050			
0.8003	51217.12	3.3070	3.3069	-0.1819	25.08	0.00	-0.050			
0.8004	51228.18	3.3060	3.3062	-0.1798	25.08	0.00	-0.050			
0.8006	51239.87	3.3050	3.3052	-0.1788	25.08	0.00	-0.050	0.068	0.598	
0.8008	51251.29	3.3040	3.3041	-0.1780	25.08	-0.00	-0.050			
0.8010	51262.66	3.3030	3.3030	-0.1772	25.07	-0.01	-0.050			
0.8012	51273.98	3.3020	3.3019	-0.1765	25.07	-0.01	-0.050			
0.8013	51285.12	3.3010	3.3009	-0.1761	25.06	-0.02	-0.050			
0.8015	51296.37	3.3000	3.3002	-0.1755	25.06	-0.02	-0.050			
0.8017	51307.68	3.2990	3.2989	-0.1751	25.06	-0.02	-0.050			
0.8019	51318.86	3.2980	3.2980	-0.1744	25.06	-0.02	-0.050			
0.8020	51329.93	3.2970	3.2971	-0.1739	25.05	-0.03	-0.050			
0.8022	51341.04	3.2960	3.2960	-0.1732	25.05	-0.03	-0.050			
0.8024	51352.01	3.2950	3.2950	-0.1724	25.05	-0.03	-0.050			
0.8025	51362.95	3.2940	3.2941	-0.1720	25.05	-0.03	-0.050			
0.8027	51373.94	3.2930	3.2929	-0.1715	25.05	-0.03	-0.050			
0.8029	51384.87	3.2920	3.2918	-0.1710	25.05	-0.03	-0.050			
0.8031	51395.80	3.2910	3.2909	-0.1705	25.05	-0.03	-0.050			
0.8032	51406.72	3.2900	3.2901	-0.1700	25.05	-0.03	-0.050			
0.8034	51417.58	3.2890	3.2890	-0.1695	25.04	-0.04	-0.050			
0.8036	51428.22	3.2880	3.2880	-0.1687	25.04	-0.04	-0.050			
0.8037	51439.00	3.2870	3.2870	-0.1683	25.04	-0.04	-0.050			
0.8039	51450.06	3.2860	3.2859	-0.1670	25.03	-0.05	-0.050			
0.8041	51460.90	3.2850	3.2849	-0.1668	25.03	-0.05	-0.050			
0.8042	51471.55	3.2840	3.2840	-0.1660	25.03	-0.05	-0.050			
0.8044	51482.15	3.2830	3.2831	-0.1652	25.03	-0.05	-0.050			
0.8046	51492.61	3.2820	3.2821	-0.1648	25.02	-0.06	-0.050			
0.8047	51503.38	3.2810	3.2810	-0.1646	25.02	-0.06	-0.050			
0.8049	51513.89	3.2800	3.2800	-0.1638	25.02	-0.06	-0.050			
0.8051	51524.34	3.2790	3.2791	-0.1629	25.02	-0.06	-0.050			
0.8052	51534.71	3.2780	3.2781	-0.1621	25.02	-0.06	-0.050			
0.8054	51544.95	3.2770	3.2771	-0.1611	25.01	-0.07	-0.050			
0.8056	51555.23	3.2760	3.2760	-0.1603	25.01	-0.07	-0.050			
0.8057	51565.47	3.2750	3.2749	-0.1596	25.01	-0.07	-0.050			
0.8059	51575.76	3.2740	3.2739	-0.1587	25.01	-0.07	-0.050			
0.8060	51585.89	3.2730	3.2729	-0.1578	25.01	-0.07	-0.050			
0.8062	51595.96	3.2720	3.2719	-0.1570	25.00	-0.08	-0.050			
0.8063	51605.98	3.2710	3.2709	-0.1561	25.00	-0.08	-0.050			
0.8065	51615.77	3.2700	3.2699	-0.1553	25.00	-0.08	-0.050			
0.8067	51625.69	3.2690	3.2691	-0.1546	25.00	-0.08	-0.050			
0.8068	51635.57	3.2680	3.2681	-0.1539	25.00	-0.08	-0.050			
0.8070	51645.40	3.2670	3.2671	-0.1532	24.99	-0.09	-0.050			
0.8071	51654.78	3.2660	3.2661	-0.1532	24.99	-0.09	-0.050			
0.8073	51664.57	3.2650	3.2651	-0.1528	24.99	-0.09	-0.050			
0.8074	51674.34	3.2640	3.2641	-0.1525	24.99	-0.09	-0.050			
0.8076	51684.09	3.2630	3.2630	-0.1521	24.99	-0.09	-0.050			
0.8077	51693.74	3.2620	3.2618	-0.1519	24.99	-0.09	-0.050			
0.8079	51703.45	3.2610	3.2609	-0.1516	24.98	-0.10	-0.050			
0.8080	51713.14	3.2600	3.2600	-0.1513	24.98	-0.10	-0.050			
0.8082	51722.82	3.2590	3.2590	-0.1511	24.98	-0.10	-0.050			
0.8083	51732.04	3.2580	3.2580	-0.1503	24.98	-0.10	-0.050			
0.8085	51741.91	3.2570	3.2570	-0.1496	24.98	-0.10	-0.050			
0.8086	51751.48	3.2560	3.2559	-0.1495	24.97	-0.11	-0.050			
0.8088	51761.04	3.2550	3.2549	-0.1493	24.97	-0.11	-0.050			
0.8089	51770.68	3.2540	3.2540	-0.1493	24.97	-0.11	-0.050			
0.8091	51780.41	3.2530	3.2530	-0.1486	24.97	-0.11	-0.050			
0.8092	51789.91	3.2520	3.2520	-0.1482	24.97	-0.11	-0.050			
0.8094	51799.38	3.2510	3.2511	-0.1478	24.97	-0.11	-0.050			
0.8095	51809.18	3.2500	3.2502	-0.1479	24.96	-0.12	-0.050			
0.8097	51818.93	3.2490	3.2491	-0.1467	24.96	-0.12	-0.050			
0.8098	51828.29	3.2480	3.2480	-0.1458	24.96	-0.12	-0.050			
0.8100	51837.58	3.2470	3.2469	-0.1448	24.96	-0.12	-0.050			
0.8101	51847.14	3.2460	3.2458	-0.1445	24.95	-0.13	-0.050			
0.8103	51856.35	3.2450	3.2449	-0.1433	24.95	-0.13	-0.050			
0.8104	51865.04	3.2440	3.2440	-0.1434	24.95	-0.13	-0.050			
0.8105	51874.19	3.2430	3.2431	-0.1426	24.94	-0.14	-0.050			
0.8107	51883.04	3.2420	3.2421	-0.1413	24.94	-0.14	-0.050			
0.8108	51892.06	3.2410	3.2411	-0.1407	24.94	-0.14	-0.050			
0.8109	51900.72	3.2400	3.2402	-0.1408	24.94	-0.14	-0.050			
0.8111	51909.72	3.2390	3.2391	-0.1405	24.94	-0.14	-0.050			
0.8112	51918.70	3.2380	3.2381	-0.1402	24.94	-0.14	-0.050			
0.8114	51927.37	3.2370	3.2371	-0.1394	24.94	-0.14	-0.050			
0.8115	51936.29	3.2360	3.2361	-0.1393	24.94	-0.14	-0.050			
0.8116	51945.45	3.2350	3.2347	-0.1385	24.94	-0.14	-0.050			
0.8118	51954.30	3.2340	3.2337	-0.1382	24.94	-0.14	-0.050			
0.8119	51963.01	3.2330	3.2328	-0.1376	24.93	-0.15	-0.050			
0.8121	51971.81	3.2320	3.2319	-0.1374	24.93	-0.15	-0.050			
0.8122	51980.60	3.2310	3.2310	-0.1372	24.93	-0.15	-0.050			
0.8123	51989.34	3.2300	3.2300	-0.1370	24.93	-0.15	-0.050			
0.8125	51998.08	3.2290	3.2291	-0.1367	24.93	-0.15	-0.050			
0.8126	52006.83	3.2280	3.2281	-0.1366	24.93	-0.15	-0.050			
0.8127	52015.56	3.2270	3.2271	-0.1364	24.93	-0.15	-0.050			
0.8129	52024.67	3.2260	3.2262	-0.1351	24.92	-0.16	-0.050			
0.8130	52033.30	3.2250	3.2252	-0.1347	24.92	-0.16	-0.050			
0.8132	52042.47	3.2240	3.2240	-0.1354	24.92	-0.16	-0.050			
0.8133	52051.11	3.2230	3.2228	-0.1345	24.92	-0.16	-0.050			
0.8134	52059.69	3.2220	3.2218	-0.1336	24.92	-0.16	-0.050			
0.8136	52068.10	3.2210	3.2210	-0.1330	24.92	-0.16	-0.050			
0.8137	52076.50	3.2200	3.2200	-0.1319	24.92	-0.16	-0.050			
0.8138	52084.92	3.2190	3.2190	-0.1311	24.92	-0.16	-0.050			
0.8140	52093.29	3.2180	3.2180	-0.1304	24.92	-0.16	-0.050			
0.8141	52101.61	3.2170	3.2171	-0.1297	24.92	-0.16	-0.050			
0.8142	52109.89	3.2160	3.2162	-0.1289	24.92	-0.16	-0.050			
0.8143	52117.85	3.2150	3.2152	-0.1284	24.92	-0.16	-0.050			
0.8145	52126.05	3.2140	3.2142	-0.1279	24.91	-0.17	-0.050			
0.8146	52134.22	3.2130	3.2132	-0.1274	24.91	-0.17	-0.050			
0.8147	52142.35	3.2120	3.2119	-0.1268	24.91	-0.17	-0.050			
0.8148	52150.23	3.2110	3.2109	-0.1271	24.91	-0.17	-0.050			
0.8150	52158.30	3.2100	3.2100	-0.1266	24.91	-0.17	-0.050			
0.8151	52166.39	3.2090	3.2091	-0.1263	24.91	-0.17	-0.050			
0.8152	52174.46	3.2080	3.2082	-0.1260	24.91	-0.17	-0.050			
0.8154	52182.52	3.2070	3.2069	-0.1257	24.91	-0.17	-0.050			
0.8155	52190.09	3.2060	3.2058	-0.1245	24.91	-0.17	-0.050			
0.8156	52198.06	3.2050	3.2049	-0.1246	24.91	-0.17	-0.050			
0.8157	52206.04	3.2040	3.2040	-0.1246	24.91	-0.17	-0.050			
0.8158	52214.02	3.2030	3.2029	-0.1247	24.91	-0.17	-0.050			
0.8160	52222.00	3.2020	3.2021	-0.1248	24.91	-0.17	-0.050			
0.8161	52230.51	3.2010	3.2012	-0.1244	24.90	-0.18	-0.050			
0.8162	52238.46	3.2000	3.1999	-0.1241	24.90	-0.18	-0.050			
0.8163	52246.39	3.1990	3.1989	-0.1237	24.90	-0.18	-0.050			
0.8165	52254.30	3.1980	3.1982	-0.1234	24.90	-0.18	-0.050			
0.8166	52262.18	3.1970	3.1970	-0.1230	24.90	-0.18	-0.050			
0.8167	52270.05	3.1960	3.1959	-0.1227	24.90	-0.18	-0.050			
0.8168	52278.20	3.1950	3.1950	-0.1226	24.90	-0.18	-0.050			
0.8170	52286.03	3.1940	3.1939	-0.1220	24.90	-0.18	-0.050			
0.8171	52293.82	3.1930	3.1927	-0.1214	24.90	-0.18	-0.050			
0.8172	52301.57	3.1920	3.1919	-0.1209	24.90	-0.18	-0.050			
0.8173	52309.51	3.1910	3.1911	-0.1206	24.90	-0.18	-0.050			
0.8175	52316.94	3.1900	3.1902	-0.1203	24.90	-0.18	-0.050			
0.8176	52324.62	3.1890	3.1892	-0.1197	24.90	-0.18	-0.050			
0.8177	52332.27	3.1880	3.1878	-0.1192	24.90	-0.18	-0.050			
0.8178	52339.88	3.1870	3.1869	-0.1187	24.91	-0.17	-0.050			
0.8179	52347.26	3.1860	3.1862	-0.1179	24.91	-0.17	-0.050			
0.8180	52354.80	3.1850	3.1850	-0.1175	24.91	-0.17	-0.050			
0.8182	52362.30	3.1840	3.1840	-0.1171	24.91	-0.17	-0.050			
0.8183	52369.79	3.1830	3.1828	-0.1167	24.91	-0.17	-0.050			
0.8184	52377.24	3.1820	3.1818	-0.1163	24.91	-0.17	-0.050			
0.8185	52384.49	3.1810	3.1811	-0.1156	24.91	-0.17	-0.050			
0.8186	52391.88	3.1800	3.1802	-0.1154	24.91	-0.17	-0.050			
0.8187	52399.12	3.1790	3.1790	-0.1154	24.91	-0.17	-0.050			
0.8189	52406.50	3.1780	3.1780	-0.1153	24.91	-0.17	-0.050			
0.8190	52413.88	3.1770	3.1772	-0.1151	24.91	-0.17	-0.050			
0.8191	52421.24	3.1760	3.1761	-0.1150	24.91	-0.17	-0.050			
0.8192	52428.61	3.1750	3.1752	-0.1149	24.91	-0.17	-0.050			
0.8193	52435.96	3.1740	3.1739	-0.1147	24.91	-0.17	-0.050			
0.8194	52443.29	3.1730	3.1728	-0.1145	24.90	-0.18	-0.050			
0.8195	52450.79	3.1720	3.1719	-0.1137	24.90	-0.18	-0.050			
0.8197	52458.06	3.1710	3.1708	-0.1134	24.90	-0.18	-0.050			
0.8198	52465.36	3.1700	3.1696	-0.1131	24.90	-0.18	-0.050			
0.8199	52472.59	3.1690	3.1692	-0.1128	24.90	-0.18	-0.050			
0.8200	52479.59	3.1680	3.1678	-0.1128	24.90	-0.18	-0.050			
0.8201	52486.81	3.1670	3.1669	-0.1126	24.90	-0.18	-0.050			
0.8202	52494.00	3.1660	3.1659	-0.1123	24.90	-0.18	-0.050			
0.8203	52501.12	3.1650	3.1651	-0.1120	24.91	-0.17	-0.050			
0.8204	52508.28	3.1640	3.1641	-0.1118	24.91	-0.17	-0.050			
0.8206	52515.95	3.1630	3.1629	-0.1107	24.91	-0.17	-0.050			
0.8207	52523.02	3.1620	3.1619	-0.1102	24.91	-0.17	-0.050	0.344	0.648	
0.8208	52530.06	3.1610	3.1609	-0.1097	24.91	-0.17	-0.050			
0.8209	52537.06	3.1600	3.1598	-0.1092	24.91	-0.17	-0.050			
0.8210	52544.31	3.1590	3.1589	-0.1093	24.91	-0.17	-0.050			
0.8211	52551.28	3.1580	3.1580	-0.1085	24.91	-0.17	-0.050			
0.8212	52558.21	3.1570	3.1568	-0.1078	24.91	-0.17	-0.050			
0.8213	52564.85	3.1560	3.1559	-0.1080	24.91	-0.17	-0.050			
0.8214	52571.74	3.1550	3.1550	-0.1074	24.91	-0.17	-0.050			
0.8215	52578.60	3.1540	3.1542	-0.1069	24.91	-0.17	-0.050			
0.8216	52585.43	3.1530	3.1530	-0.1064	24.91	-0.17	-0.050			
0.8217	52591.97	3.1520	3.1521	-0.1056	24.91	-0.17	-0.050			
0.8219	52598.71	3.1510	3.1513	-0.1053	24.91	-0.17	-0.050			
0.8220	52605.47	3.1500	3.1502	-0.1048	24.92	-0.16	-0.050			
0.8221	52612.16	3.1490	3.1489	-0.1045	24.92	-0.16	-0.050			
0.8222	52618.94	3.1480	3.1478	-0.1043	24.92	-0.16	-0.050			
0.8223	52625.60	3.1470	3.1468	-0.1039	24.92	-0.16	-0.050			
0.8224	52632.23	3.1460	3.1460	-0.1034	24.92	-0.16	-0.050			
0.8225	52638.84	3.1450	3.1448	-0.1030	24.92	-0.16	-0.050			
0.8226	52645.23	3.1440	3.1439	-0.1031	24.92	-0.16	-0.050			
0.8227	52651.47	3.1430	3.1431	-0.1017	24.92	-0.16	-0.050			
0.8228	52657.98	3.1420	3.1421	-0.1017	24.91	-0.17	-0.050			
0.8229	52664.48	3.1410	3.1409	-0.1016	24.91	-0.17	-0.050			
0.8230	52670.99	3.1400	3.1400	-0.1016	24.91	-0.17	-0.050			
0.8231	52677.48	3.1390	3.1391	-0.1015	24.91	-0.17	-0.050			
0.8232	52684.04	3.1380	3.1381	-0.1012	24.91	-0.17	-0.050			
0.8233	52690.52	3.1370	3.1368	-0.1011	24.91	-0.17	-0.050			
0.8234	52697.21	3.1360	3.1357	-0.1015	24.92	-0.16	-0.050			
0.8235	52703.69	3.1350	3.1348	-0.1012	24.92	-0.16	-0.050			
0.8236	52710.16	3.1340	3.1340	-0.1010	24.92	-0.16	-0.050			
0.8237	52716.62	3.1330	3.1332	-0.1007	24.92	-0.16	-0.050			
0.8238	52723.25	3.1320	3.1321	-0.0999	24.93	-0.15	-0.050			
0.8239	52729.63	3.1310	3.1309	-0.0995	24.93	-0.15	-0.050			
0.8240	52735.97	3.1300	3.1302	-0.0991	24.93	-0.15	-0.050			
0.8241	52742.31	3.1290	3.1290	-0.0987	24.93	-0.15	-0.050			
0.8242	52748.61	3.1280	3.1279	-0.0984	24.93	-0.15	-0.050			
0.8243	52754.90	3.1270	3.1270	-0.0980	24.93	-0.15	-0.050			
0.8244	52761.15	3.1260	3.1260	-0.0976	24.93	-0.15	-0.050			
0.8245	52767.27	3.1250	3.1250	-0.0976	24.93	-0.15	-0.050			
0.8246	52773.65	3.1240	3.1239	-0.0976	24.93	-0.15	-0.050			
0.8247	52779.89	3.1230	3.1231	-0.0973	24.93	-0.15	-0.050			
0.8248	52786.10	3.1220	3.1222	-0.0969	24.93	-0.15	-0.050			
0.8249	52792.29	3.1210	3.1212	-0.0965	24.93	-0.15	-0.050			
0.8250	52798.45	3.1200	3.1200	-0.0961	24.93	-0.15	-0.050			
0.8251	52804.59	3.1190	3.1189	-0.0957	24.93	-0.15	-0.050			
0.8252	52810.34	3.1180	3.1180	-0.0956	24.93	-0.15	-0.050			
0.8253	52816.45	3.1170	3.1169	-0.0954	24.93	-0.15	-0.050			
0.8254	52822.55	3.1160	3.1158	-0.0953	24.93	-0.15	-0.050			
0.8254	52828.65	3.1150	3.1148	-0.0952	24.93	-0.15	-0.050			
0.8255	52834.73	3.1140	3.1139	-0.0950	24.93	-0.15	-0.050			
0.8256	52840.81	3.1130	3.1129	-0.0949	24.93	-0.15	-0.050			
0.8257	52846.98	3.1120	3.1119	-0.0938	24.93	-0.15	-0.050			
0.8258	52852.97	3.1110	3.1109	-0.0936	24.93	-0.15	-0.050			
0.8259	52858.96	3.1100	3.1099	-0.0934	24.93	-0.15	-0.050			
0.8260	52864.93	3.1090	3.1090	-0.0932	24.93	-0.15	-0.050			
0.8261	52870.89	3.1080	3.1080	-0.0930	24.93	-0.15	-0.050			
0.8262	52876.84	3.1070	3.1071	-0.0928	24.93	-0.15	-0.050			
0.8263	52882.77	3.1060	3.1061	-0.0926	24.93	-0.15	-0.050			
0.8264	52888.96	3.1050	3.1051	-0.0931	24.93	-0.15	-0.050			
0.8265	52894.90	3.1040	3.1043	-0.0927	24.93	-0.15	-0.050			
0.8266	52900.82	3.1030	3.1032	-0.0923	24.93	-0.15	-0.050			
0.8267	52906.72	3.1020	3.1020	-0.0919	24.93	-0.15	-0.050			
0.8268	52912.59	3.1010	3.1009	-0.0915	24.94	-0.14	-0.050			
0.8269	52918.44	3.1000	3.0999	-0.0912	24.94	-0.14	-0.050			
0.8269	52924.26	3.0990	3.0989	-0.0908	24.94	-0.14	-0.050			
0.8270	52929.96	3.0980	3.0979	-0.0903	24.94	-0.14	-0.050			
0.8271	52935.68	3.0970	3.0969	-0.0901	24.94	-0.14	-0.050			
0.8272	52941.44	3.0960	3.0960	-0.0898	24.95	-0.13	-0.050			
0.8273	52947.18	3.0950	3.0950	-0.0895	24.95	-0.13	-0.050			
0.8274	52952.90	3.0940	3.0940	-0.0892	24.95	-0.13	-0.050			
0.8275	52958.60	3.0930	3.0928	-0.0890	24.95	-0.13	-0.050			
0.8276	52964.03	3.0920	3.0919	-0.0884	24.95	-0.13	-0.050			
0.8277	52969.68	3.0910	3.0910	-0.0883	24.95	-0.13	-0.050			
0.8277	52975.33	3.0900	3.0900	-0.0882	24.95	-0.13	-0.050			
0.8278	52980.97	3.0890	3.0891	-0.0880	24.95	-0.13	-0.050			
0.8279	52986.60	3.0880	3.0880	-0.0879	24.95	-0.13	-0.050			
0.8280	52992.22	3.0870	3.0869	-0.0878	24.95	-0.13	-0.050			
0.8281	52997.83	3.0860	3.0860	-0.0876	24.95	-0.13	-0.050			
0.8282	53003.55	3.0850	3.0851	-0.0876	24.95	-0.13	-0.050			
0.8283	53009.38	3.0840	3.0840	-0.0870	24.95	-0.13	-0.050			
0.8284	53014.94	3.0830	3.0829	-0.0866	24.95	-0.13	-0.050			
0.8284	53020.47	3.0820	3.0819	-0.0863	24.95	-0.13	-0.050			
0.8285	53025.98	3.0810	3.0809	-0.0859	24.95	-0.13	-0.050			
0.8286	53031.47	3.0800	3.0800	-0.0856	24.95	-0.13	-0.050			
0.8287	53036.93	3.0790	3.0790	-0.0852	24.95	-0.13	-0.050			
0.8288	53042.38	3.0780	3.0781	-0.0848	24.95	-0.13	-0.050			
0.8289	53047.69	3.0770	3.0771	-0.0849	24.95	-0.13	-0.050			
0.8290	53053.12	3.0760	3.0763	-0.0846	24.95	-0.13	-0.050			
0.8290	53058.52	3.0750	3.0752	-0.0843	24.95	-0.13	-0.050			
0.8291	53063.91	3.0740	3.0740	-0.0840	24.95	-0.13	-0.050			
0.8292	53069.28	3.0730	3.0730	-0.0838	24.95	-0.13	-0.050			
0.8293	53074.63	3.0720	3.0720	-0.0835	24.95	-0.13	-0.050			
0.8294	53079.73	3.0710	3.0710	-0.0834	24.95	-0.13	-0.050			
0.8295	53085.07	3.0700	3.0699	-0.0833	24.95	-0.13	-0.050			
0.8295	53090.39	3.0690	3.0689	-0.0832	24.95	-0.13	-0.050			
0.8296	53095.72	3.0680	3.0679	-0.0831	24.95	-0.13	-0.050			
0.8297	53101.03	3.0670	3.0669	-0.0830	24.95	-0.13	-0.050			
0.8298	53106.33	3.0660	3.0659	-0.0828	24.95	-0.13	-0.050			
0.8299	53111.63	3.0650	3.0650	-0.0827	24.95	-0.13	-0.050			
0.8299	53116.77	3.0640	3.0640	-0.0821	24.95	-0.13	-0.050			
0.8300	53122.02	3.0630	3.0630	-0.0821	24.95	-0.13	-0.050			
0.8301	53127.27	3.0620	3.0619	-0.0821	24.95	-0.13	-0.050			
0.8302	53132.52	3.0610	3.0610	-0.0820	24.95	-0.13	-0.050			
0.8303	53137.77	3.0600	3.0601	-0.0820	24.96	-0.12	-0.050			
0.8304	53143.02	3.0590	3.0592	-0.0820	24.96	-0.12	-0.050			
0.8304	53148.27	3.0580	3.0581	-0.0820	24.96	-0.12	-0.050			
0.8305	53154.12	3.0570	3.0570	-0.0819	24.96	-0.12	-0.050			
0.8306	53159.35	3.0560	3.0558	-0.0815	24.96	-0.12	-0.050			
0.8307	53164.55	3.0550	3.0552	-0.0811	24.96	-0.12	-0.050			
0.8308	53169.73	3.0540	3.0539	-0.0807	24.96	-0.12	-0.050			
0.8309	53174.88	3.0530	3.0529	-0.0803	24.96	-0.12	-0.050			
0.8309	53180.00	3.0520	3.0519	-0.0799	24.96	-0.12	-0.050			
0.8310	53185.33	3.0510	3.0509	-0.0797	24.96	-0.12	-0.050			
0.8311	53190.03	3.0500	3.0499	-0.0796	24.97	-0.11	-0.050			
0.8312	53195.11	3.0490	3.0489	-0.0793	24.97	-0.11	-0.050			
0.8313	53200.18	3.0480	3.0480	-0.0790	24.97	-0.11	-0.050			
0.8313	53205.22	3.0470	3.0470	-0.0787	24.97	-0.11	-0.050			
0.8314	53210.25	3.0460	3.0461	-0.0784	24.97	-0.11	-0.050			
0.8315	53215.25	3.0450	3.0454	-0.0780	24.97	-0.11	-0.050			
0.8316	53220.11	3.0440	3.0443	-0.0776	24.97	-0.11	-0.050			
0.8316	53225.07	3.0430	3.0430	-0.0774	24.97	-0.11	-0.050			
0.8317	53230.09	3.0420	3.0418	-0.0770	24.97	-0.11	-0.050			
0.8318	53235.01	3.0410	3.0407	-0.0767	24.97	-0.11	-0.050			
0.8319	53239.90	3.0400	3.0398	-0.0764	24.97	-0.11	-0.050			
0.8319	53244.78	3.0390	3.0389	-0.0761	24.98	-0.10	-0.050			
0.8320	53249.64	3.0380	3.0379	-0.0758	24.98	-0.10	-0.050			
0.8321	53254.30	3.0370	3.0369	-0.0753	24.98	-0.10	-0.050			
0.8322	53259.11	3.0360	3.0360	-0.0751	24.98	-0.10	-0.050			
0.8322	53263.85	3.0350	3.0351	-0.0750	24.98	-0.10	-0.050			
0.8323	53268.64	3.0340	3.0343	-0.0748	24.98	-0.10	-0.050			
0.8324	53273.43	3.0330	3.0331	-0.0747	24.98	-0.10	-0.050			
0.8325	53278.20	3.0320	3.0320	-0.0745	24.98	-0.10	-0.050			
0.8325	53282.97	3.0310	3.0311	-0.0744	24.98	-0.10	-0.050			
0.8326	53287.91	3.0300	3.0301	-0.0745	24.98	-0.10	-0.050			
0.8327	53292.67	3.0290	3.0290	-0.0743	24.98	-0.10	-0.050			
0.8328	53297.42	3.0280	3.0280	-0.0740	24.98	-0.10	-0.050			
0.8328	53302.00	3.0270	3.0269	-0.0741	24.98	-0.10	-0.050			
0.8329	53306.73	3.0260	3.0258	-0.0740	24.98	-0.10	-0.050			
0.8330	53311.46	3.0250	3.0249	-0.0738	24.98	-0.10	-0.050			
0.8331	53316.18	3.0240	3.0239	-0.0736	24.98	-0.10	-0.050			
0.8331	53320.89	3.0230	3.0230	-0.0735	24.98	-0.10	-0.050			
0.8332	53325.25	3.0220	3.0220	-0.0730	24.98	-0.10	-0.050			
0.8333	53329.92	3.0210	3.0210	-0.0730	24.98	-0.10	-0.050			
0.8334	53334.86	3.0200	3.0200	-0.0725	24.98	-0.10	-0.050			
0.8334	53339.49	3.0190	3.0190	-0.0724	24.98	-0.10	-0.050			
0.8335	53344.12	3.0180	3.0180	-0.0722	24.98	-0.10	-0.050			
0.8336	53348.74	3.0170	3.0170	-0.0721	24.98	-0.10	-0.050			
0.8336	53353.35	3.0160	3.0160	-0.0720	24.99	-0.09	-0.050			
0.8337	53358.26	3.0150	3.0150	-0.0722	24.99	-0.09	-0.050			
0.8338	53362.87	3.0140	3.0141	-0.0719	24.99	-0.09	-0.050			
0.8339	53367.46	3.0130	3.0131	-0.0716	24.99	-0.09	-0.050			
0.8339	53372.03	3.0120	3.0121	-0.0713	24.99	-0.09	-0.050			
0.8340	53376.58	3.0110	3.0112	-0.0710	24.99	-0.09	-0.050			
0.8341	53381.11	3.0100	3.0101	-0.0706	24.99	-0.09	-0.050			
0.8342	53385.62	3.0090	3.0090	-0.0703	24.99	-0.09	-0.050			
0.8342	53390.12	3.0080	3.0079	-0.0700	24.99	-0.09	-0.050			
0.8343	53394.73	3.0070	3.0069	-0.0692	24.99	-0.09	-0.050			
0.8344	53399.14	3.0060	3.0060	-0.0686	24.99	-0.09	-0.050			
0.8344	53403.52	3.0050	3.0050	-0.0681	25.00	-0.08	-0.050			
0.8345	53407.87	3.0040	3.0040	-0.0676	25.00	-0.08	-0.050			
