Ah_balance (normalized)	Ah_balance (mAh)	Voltage - fit (V)	Voltage -  interpolate (V)	dQ/dV (1/V)	Temperature (°C)	Temperature - diff (°C)	Current (C)	R_DC 0ms (mOhm)	R_DC 50ms (mOhm)	R_DC 50 ms PEC (mOhm)
0.0000	1.46	4.1880	4.1882	-0.3386	25.26	0.00	-0.050			
0.0004	24.05	4.1870	4.1868	-0.3996	25.26	0.00	-0.050			
0.0008	50.92	4.1860	4.1856	-0.4384	25.26	0.00	-0.050			
0.0013	80.01	4.1850	4.1848	-0.4680	25.26	0.00	-0.050			
0.0017	111.52	4.1840	4.1835	-0.4990	25.26	0.00	-0.050			
0.0023	145.09	4.1830	4.1828	-0.5270	25.25	-0.01	-0.050			
0.0028	180.97	4.1820	4.1820	-0.5526	25.25	-0.01	-0.050			
0.0034	219.12	4.1810	4.1809	-0.5751	25.24	-0.02	-0.050			
0.0040	256.52	4.1800	4.1799	-0.5939	25.25	-0.01	-0.050			
0.0046	296.48	4.1790	4.1792	-0.6097	25.25	-0.01	-0.050			
0.0053	337.30	4.1780	4.1780	-0.6231	25.26	-0.00	-0.050			
0.0059	378.89	4.1770	4.1770	-0.6343	25.25	-0.01	-0.050			
0.0066	420.62	4.1760	4.1760	-0.6446	25.24	-0.02	-0.050			
0.0073	466.63	4.1750	4.1751	-0.6625	25.25	-0.01	-0.050			
0.0080	510.39	4.1740	4.1742	-0.6709	25.25	-0.01	-0.050			
0.0087	554.05	4.1730	4.1730	-0.6780	25.24	-0.02	-0.050			
0.0093	597.25	4.1720	4.1720	-0.6843	25.24	-0.02	-0.050			
0.0100	642.23	4.1710	4.1711	-0.6888	25.22	-0.04	-0.050			
0.0107	686.96	4.1700	4.1699	-0.6936	25.23	-0.03	-0.050			
0.0114	731.52	4.1690	4.1690	-0.6976	25.24	-0.02	-0.050			
0.0121	776.51	4.1680	4.1682	-0.7043	25.24	-0.02	-0.050			
0.0128	822.06	4.1670	4.1670	-0.7065	25.24	-0.02	-0.050			
0.0136	867.25	4.1660	4.1659	-0.7111	25.23	-0.03	-0.050			
0.0143	912.51	4.1650	4.1651	-0.7133	25.23	-0.03	-0.050			
0.0150	957.86	4.1640	4.1640	-0.7168	25.24	-0.02	-0.050			
0.0157	1003.53	4.1630	4.1630	-0.7230	25.23	-0.03	-0.050			
0.0164	1050.01	4.1620	4.1622	-0.7272	25.23	-0.03	-0.050			
0.0171	1097.05	4.1610	4.1611	-0.7303	25.23	-0.03	-0.050			
0.0179	1143.71	4.1600	4.1600	-0.7357	25.24	-0.02	-0.050			
0.0186	1192.05	4.1590	4.1589	-0.7395	25.24	-0.02	-0.050			
0.0194	1239.09	4.1580	4.1581	-0.7426	25.24	-0.02	-0.050			
0.0201	1287.13	4.1570	4.1569	-0.7479	25.24	-0.02	-0.050	0.212	0.614	
0.0209	1335.76	4.1560	4.1562	-0.7504	25.24	-0.02	-0.050			
0.0216	1383.34	4.1550	4.1549	-0.7534	25.24	-0.02	-0.050			
0.0224	1431.71	4.1540	4.1540	-0.7560	25.24	-0.02	-0.050			
0.0231	1480.83	4.1530	4.1532	-0.7582	25.23	-0.03	-0.050			
0.0239	1529.77	4.1520	4.1520	-0.7603	25.24	-0.02	-0.050			
0.0247	1578.72	4.1510	4.1511	-0.7645	25.24	-0.02	-0.050			
0.0254	1628.21	4.1500	4.1499	-0.7678	25.25	-0.01	-0.050			
0.0262	1677.12	4.1490	4.1489	-0.7684	25.25	-0.01	-0.050			
0.0270	1726.28	4.1480	4.1480	-0.7695	25.25	-0.01	-0.050			
0.0277	1775.58	4.1470	4.1470	-0.7706	25.25	-0.01	-0.050			
0.0285	1824.79	4.1460	4.1460	-0.7726	25.25	-0.01	-0.050			
0.0293	1874.86	4.1450	4.1453	-0.7759	25.26	-0.00	-0.050			
0.0301	1924.31	4.1440	4.1442	-0.7758	25.26	0.00	-0.050			
0.0308	1973.39	4.1430	4.1429	-0.7782	25.27	0.01	-0.050			
0.0316	2023.73	4.1420	4.1418	-0.7785	25.26	0.00	-0.050			
0.0324	2074.17	4.1410	4.1412	-0.7807	25.27	0.01	-0.050			
0.0332	2124.60	4.1400	4.1399	-0.7824	25.26	0.00	-0.050			
0.0340	2174.47	4.1390	4.1390	-0.7817	25.27	0.01	-0.050			
0.0348	2224.61	4.1380	4.1380	-0.7852	25.28	0.02	-0.050			
0.0355	2274.52	4.1370	4.1371	-0.7855	25.28	0.02	-0.050			
0.0363	2325.01	4.1360	4.1360	-0.7865	25.28	0.02	-0.050			
0.0371	2375.96	4.1350	4.1349	-0.7867	25.28	0.02	-0.050			
0.0379	2425.91	4.1340	4.1341	-0.7894	25.28	0.02	-0.050			
0.0387	2476.95	4.1330	4.1331	-0.7924	25.28	0.02	-0.050			
0.0395	2527.58	4.1320	4.1322	-0.7925	25.29	0.03	-0.050			
0.0403	2578.03	4.1310	4.1308	-0.7923	25.28	0.02	-0.050	-0.013	0.588	
0.0411	2628.18	4.1300	4.1300	-0.7940	25.28	0.02	-0.050			
0.0419	2679.60	4.1290	4.1289	-0.7951	25.29	0.03	-0.050			
0.0427	2730.88	4.1280	4.1281	-0.7968	25.28	0.02	-0.050			
0.0435	2781.96	4.1270	4.1270	-0.7964	25.29	0.03	-0.050			
0.0443	2832.45	4.1260	4.1260	-0.7986	25.29	0.03	-0.050			
0.0451	2883.57	4.1250	4.1248	-0.8005	25.29	0.03	-0.050			
0.0459	2934.64	4.1240	4.1243	-0.8015	25.29	0.03	-0.050			
0.0467	2986.16	4.1230	4.1229	-0.8031	25.29	0.03	-0.050			
0.0475	3037.67	4.1220	4.1218	-0.8062	25.30	0.04	-0.050			
0.0483	3090.37	4.1210	4.1210	-0.8076	25.30	0.04	-0.050			
0.0491	3141.89	4.1200	4.1201	-0.8057	25.29	0.03	-0.050			
0.0499	3193.15	4.1190	4.1191	-0.8071	25.29	0.03	-0.050			
0.0507	3244.43	4.1180	4.1181	-0.8069	25.29	0.03	-0.050			
0.0515	3296.90	4.1170	4.1168	-0.8076	25.29	0.03	-0.050			
0.0523	3348.79	4.1160	4.1161	-0.8075	25.29	0.03	-0.050			
0.0531	3400.37	4.1150	4.1152	-0.8083	25.28	0.02	-0.050			
0.0539	3451.06	4.1140	4.1139	-0.8084	25.29	0.03	-0.050			
0.0547	3503.32	4.1130	4.1129	-0.8128	25.28	0.02	-0.050			
0.0555	3554.90	4.1120	4.1121	-0.8137	25.28	0.02	-0.050			
0.0564	3606.49	4.1110	4.1108	-0.8173	25.28	0.02	-0.050			
0.0572	3658.30	4.1100	4.1098	-0.8184	25.27	0.01	-0.050			
0.0580	3711.72	4.1090	4.1090	-0.8190	25.26	-0.00	-0.050			
0.0588	3764.80	4.1080	4.1081	-0.8168	25.25	-0.01	-0.050			
0.0596	3817.55	4.1070	4.1069	-0.8181	25.25	-0.01	-0.050			
0.0605	3869.38	4.1060	4.1059	-0.8184	25.24	-0.02	-0.050			
0.0613	3921.24	4.1050	4.1050	-0.8205	25.24	-0.02	-0.050			
0.0621	3973.49	4.1040	4.1041	-0.8235	25.24	-0.02	-0.050			
0.0629	4027.23	4.1030	4.1031	-0.8243	25.23	-0.03	-0.050			
0.0638	4080.12	4.1020	4.1020	-0.8242	25.22	-0.04	-0.050			
0.0646	4133.18	4.1010	4.1010	-0.8259	25.21	-0.05	-0.050			
0.0654	4186.67	4.1000	4.1003	-0.8269	25.22	-0.04	-0.050			
0.0662	4238.92	4.0990	4.0990	-0.8297	25.22	-0.04	-0.050			
0.0671	4291.88	4.0980	4.0976	-0.8295	25.22	-0.04	-0.050			
0.0679	4345.50	4.0970	4.0969	-0.8307	25.23	-0.03	-0.050			
0.0687	4398.75	4.0960	4.0960	-0.8295	25.22	-0.04	-0.050			
0.0696	4451.74	4.0950	4.0950	-0.8288	25.21	-0.05	-0.050			
0.0704	4504.13	4.0940	4.0943	-0.8282	25.21	-0.05	-0.050			
0.0712	4557.60	4.0930	4.0929	-0.8287	25.22	-0.04	-0.050			
0.0720	4610.68	4.0920	4.0919	-0.8281	25.21	-0.05	-0.050			
0.0729	4663.96	4.0910	4.0910	-0.8296	25.21	-0.05	-0.050			
0.0737	4717.41	4.0900	4.0899	-0.8309	25.22	-0.04	-0.050			
0.0745	4771.19	4.0890	4.0890	-0.8332	25.22	-0.04	-0.050			
0.0754	4825.03	4.0880	4.0881	-0.8343	25.21	-0.05	-0.050			
0.0762	4877.46	4.0870	4.0869	-0.8315	25.21	-0.05	-0.050			
0.0770	4930.50	4.0860	4.0861	-0.8311	25.20	-0.06	-0.050			
0.0779	4983.35	4.0850	4.0852	-0.8302	25.21	-0.05	-0.050			
0.0787	5035.58	4.0840	4.0842	-0.8325	25.21	-0.05	-0.050			
0.0795	5089.10	4.0830	4.0831	-0.8348	25.21	-0.05	-0.050			
0.0804	5142.60	4.0820	4.0821	-0.8360	25.21	-0.05	-0.050	0.388	0.472	
0.0812	5196.79	4.0810	4.0811	-0.8360	25.21	-0.05	-0.050			
0.0820	5249.75	4.0800	4.0800	-0.8366	25.20	-0.06	-0.050			
0.0829	5302.81	4.0790	4.0791	-0.8372	25.21	-0.05	-0.050			
0.0837	5356.39	4.0780	4.0777	-0.8401	25.20	-0.06	-0.050			
0.0846	5411.30	4.0770	4.0769	-0.8418	25.21	-0.05	-0.050			
0.0854	5465.53	4.0760	4.0759	-0.8419	25.21	-0.05	-0.050			
0.0862	5519.22	4.0750	4.0748	-0.8432	25.22	-0.04	-0.050			
0.0871	5572.85	4.0740	4.0741	-0.8459	25.21	-0.05	-0.050			
0.0879	5627.47	4.0730	4.0735	-0.8467	25.21	-0.05	-0.050			
0.0888	5682.16	4.0720	4.0720	-0.8481	25.22	-0.04	-0.050			
0.0896	5736.43	4.0710	4.0709	-0.8473	25.21	-0.05	-0.050			
0.0905	5790.42	4.0700	4.0699	-0.8479	25.21	-0.05	-0.050			
0.0913	5844.54	4.0690	4.0690	-0.8514	25.21	-0.05	-0.050			
0.0922	5898.80	4.0680	4.0681	-0.8518	25.21	-0.05	-0.050			
0.0930	5953.69	4.0670	4.0668	-0.8531	25.22	-0.04	-0.050			
0.0939	6008.47	4.0660	4.0659	-0.8538	25.22	-0.04	-0.050			
0.0947	6062.92	4.0650	4.0649	-0.8541	25.22	-0.04	-0.050			
0.0956	6117.48	4.0640	4.0641	-0.8529	25.23	-0.03	-0.050			
0.0964	6171.88	4.0630	4.0632	-0.8536	25.23	-0.03	-0.050			
0.0973	6227.23	4.0620	4.0619	-0.8563	25.24	-0.02	-0.050			
0.0982	6282.51	4.0610	4.0609	-0.8572	25.23	-0.03	-0.050			
0.0990	6337.27	4.0600	4.0600	-0.8572	25.24	-0.02	-0.050			
0.0999	6391.77	4.0590	4.0591	-0.8565	25.24	-0.02	-0.050	0.048	0.564	
0.1007	6446.92	4.0580	4.0580	-0.8573	25.25	-0.01	-0.050			
0.1016	6501.96	4.0570	4.0571	-0.8573	25.25	-0.01	-0.050			
0.1025	6557.51	4.0560	4.0559	-0.8572	25.25	-0.01	-0.050			
0.1033	6611.41	4.0550	4.0550	-0.8559	25.25	-0.01	-0.050			
0.1041	6665.57	4.0540	4.0541	-0.8576	25.26	-0.00	-0.050			
0.1050	6720.82	4.0530	4.0530	-0.8597	25.26	0.00	-0.050			
0.1059	6776.33	4.0520	4.0519	-0.8607	25.27	0.01	-0.050			
0.1067	6830.74	4.0510	4.0509	-0.8609	25.26	0.00	-0.050			
0.1076	6884.85	4.0500	4.0500	-0.8614	25.26	0.00	-0.050			
0.1084	6939.71	4.0490	4.0489	-0.8613	25.27	0.01	-0.050			
0.1093	6995.03	4.0480	4.0479	-0.8638	25.27	0.01	-0.050			
0.1102	7051.50	4.0470	4.0471	-0.8650	25.27	0.01	-0.050			
0.1111	7107.70	4.0460	4.0458	-0.8645	25.27	0.01	-0.050			
0.1119	7162.64	4.0450	4.0451	-0.8661	25.28	0.02	-0.050			
0.1128	7217.91	4.0440	4.0441	-0.8670	25.28	0.02	-0.050			
0.1137	7273.85	4.0430	4.0431	-0.8680	25.28	0.02	-0.050			
0.1145	7328.66	4.0420	4.0419	-0.8707	25.28	0.02	-0.050			
0.1154	7384.44	4.0410	4.0409	-0.8717	25.29	0.03	-0.050			
0.1163	7440.43	4.0400	4.0402	-0.8742	25.29	0.03	-0.050			
0.1171	7496.93	4.0390	4.0390	-0.8740	25.29	0.03	-0.050			
0.1180	7552.26	4.0380	4.0380	-0.8748	25.29	0.03	-0.050			
0.1189	7608.32	4.0370	4.0369	-0.8786	25.30	0.04	-0.050			
0.1198	7664.44	4.0360	4.0360	-0.8799	25.30	0.04	-0.050	0.114	0.456	
0.1206	7720.21	4.0350	4.0351	-0.8798	25.30	0.04	-0.050			
0.1215	7776.68	4.0340	4.0339	-0.8807	25.30	0.04	-0.050			
0.1224	7833.01	4.0330	4.0331	-0.8831	25.30	0.04	-0.050			
0.1233	7890.16	4.0320	4.0319	-0.8844	25.30	0.04	-0.050			
0.1242	7947.04	4.0310	4.0311	-0.8842	25.30	0.04	-0.050			
0.1251	8004.15	4.0300	4.0301	-0.8844	25.29	0.03	-0.050			
0.1260	8061.25	4.0290	4.0288	-0.8868	25.30	0.04	-0.050			
0.1269	8118.46	4.0280	4.0279	-0.8875	25.29	0.03	-0.050			
0.1277	8175.13	4.0270	4.0271	-0.8888	25.30	0.04	-0.050			
0.1286	8231.50	4.0260	4.0261	-0.8912	25.30	0.04	-0.050			
0.1295	8288.39	4.0250	4.0249	-0.8909	25.29	0.03	-0.050			
0.1304	8345.62	4.0240	4.0239	-0.8898	25.28	0.02	-0.050			
0.1313	8402.59	4.0230	4.0230	-0.8878	25.28	0.02	-0.050			
0.1322	8458.85	4.0220	4.0219	-0.8890	25.27	0.01	-0.050			
0.1331	8516.01	4.0210	4.0211	-0.8897	25.27	0.01	-0.050			
0.1340	8573.15	4.0200	4.0198	-0.8916	25.26	0.00	-0.050			
0.1348	8629.64	4.0190	4.0189	-0.8943	25.25	-0.01	-0.050			
0.1357	8686.76	4.0180	4.0179	-0.8936	25.24	-0.02	-0.050			
0.1366	8743.34	4.0170	4.0169	-0.8949	25.23	-0.03	-0.050			
0.1375	8800.97	4.0160	4.0162	-0.8967	25.23	-0.03	-0.050			
0.1384	8858.19	4.0150	4.0151	-0.9001	25.22	-0.04	-0.050			
0.1393	8916.37	4.0140	4.0139	-0.9012	25.21	-0.05	-0.050			
0.1402	8974.73	4.0130	4.0130	-0.9013	25.20	-0.06	-0.050	0.067	0.505	
0.1412	9033.69	4.0120	4.0121	-0.9000	25.20	-0.06	-0.050			
0.1421	9091.78	4.0110	4.0109	-0.8981	25.20	-0.06	-0.050			
0.1430	9149.20	4.0100	4.0100	-0.8987	25.20	-0.06	-0.050			
0.1438	9205.44	4.0090	4.0092	-0.9005	25.21	-0.05	-0.050			
0.1447	9262.79	4.0080	4.0078	-0.9017	25.21	-0.05	-0.050			
0.1456	9320.06	4.0070	4.0072	-0.9027	25.20	-0.06	-0.050			
0.1465	9377.50	4.0060	4.0060	-0.9043	25.20	-0.06	-0.050			
0.1474	9435.70	4.0050	4.0053	-0.9068	25.20	-0.06	-0.050			
0.1483	9493.26	4.0040	4.0041	-0.9123	25.20	-0.06	-0.050			
0.1493	9552.51	4.0030	4.0028	-0.9121	25.19	-0.07	-0.050			
0.1502	9609.88	4.0020	4.0018	-0.9115	25.20	-0.06	-0.050			
0.1511	9668.60	4.0010	4.0009	-0.9124	25.20	-0.06	-0.050			
0.1520	9727.16	4.0000	4.0000	-0.9127	25.19	-0.07	-0.050			
0.1529	9785.49	3.9990	3.9990	-0.9129	25.20	-0.06	-0.050			
0.1538	9844.38	3.9980	3.9979	-0.9164	25.20	-0.06	-0.050			
0.1547	9903.56	3.9970	3.9968	-0.9171	25.20	-0.06	-0.050			
0.1557	9963.09	3.9960	3.9960	-0.9161	25.21	-0.05	-0.050			
0.1566	10021.64	3.9950	3.9950	-0.9157	25.20	-0.06	-0.050			
0.1575	10081.59	3.9940	3.9941	-0.9194	25.20	-0.06	-0.050			
0.1584	10140.35	3.9930	3.9933	-0.9215	25.20	-0.06	-0.050			
0.1594	10199.20	3.9920	3.9919	-0.9228	25.19	-0.07	-0.050			
0.1603	10257.48	3.9910	3.9911	-0.9201	25.21	-0.05	-0.050			
0.1612	10315.24	3.9900	3.9898	-0.9203	25.21	-0.05	-0.050			
0.1621	10374.01	3.9890	3.9891	-0.9171	25.20	-0.06	-0.050			
0.1630	10432.78	3.9880	3.9880	-0.9200	25.21	-0.05	-0.050			
0.1639	10491.45	3.9870	3.9870	-0.9216	25.22	-0.04	-0.050			
0.1648	10550.37	3.9860	3.9859	-0.9222	25.22	-0.04	-0.050			
0.1658	10609.46	3.9850	3.9850	-0.9228	25.22	-0.04	-0.050			
0.1667	10668.39	3.9840	3.9840	-0.9226	25.22	-0.04	-0.050			
0.1676	10727.85	3.9830	3.9831	-0.9257	25.23	-0.03	-0.050			
0.1686	10788.28	3.9820	3.9821	-0.9281	25.23	-0.03	-0.050			
0.1695	10848.09	3.9810	3.9810	-0.9262	25.23	-0.03	-0.050			
0.1704	10907.10	3.9800	3.9800	-0.9299	25.24	-0.02	-0.050			
0.1714	10966.90	3.9790	3.9788	-0.9283	25.24	-0.02	-0.050			
0.1723	11025.49	3.9780	3.9783	-0.9323	25.24	-0.02	-0.050			
0.1732	11085.33	3.9770	3.9772	-0.9337	25.24	-0.02	-0.050			
0.1741	11145.47	3.9760	3.9758	-0.9353	25.25	-0.01	-0.050			
0.1751	11205.09	3.9750	3.9751	-0.9351	25.25	-0.01	-0.050			
0.1760	11263.74	3.9740	3.9740	-0.9371	25.25	-0.01	-0.050			
0.1769	11322.97	3.9730	3.9731	-0.9383	25.25	-0.01	-0.050			
0.1779	11383.35	3.9720	3.9720	-0.9401	25.26	0.00	-0.050			
0.1788	11443.56	3.9710	3.9707	-0.9429	25.26	0.00	-0.050			
0.1797	11503.92	3.9700	3.9702	-0.9466	25.26	0.00	-0.050	0.325	0.542	
0.1807	11565.78	3.9690	3.9688	-0.9482	25.26	0.00	-0.050			
0.1817	11625.97	3.9680	3.9680	-0.9485	25.27	0.01	-0.050			
0.1826	11687.17	3.9670	3.9671	-0.9517	25.27	0.01	-0.050			
0.1836	11748.85	3.9660	3.9659	-0.9551	25.27	0.01	-0.050			
0.1845	11810.29	3.9650	3.9650	-0.9562	25.27	0.01	-0.050			
0.1855	11872.45	3.9640	3.9643	-0.9570	25.27	0.01	-0.050			
0.1865	11933.76	3.9630	3.9631	-0.9568	25.28	0.02	-0.050			
0.1874	11995.34	3.9620	3.9617	-0.9577	25.28	0.02	-0.050			
0.1884	12056.99	3.9610	3.9611	-0.9573	25.28	0.02	-0.050			
0.1893	12117.54	3.9600	3.9600	-0.9544	25.29	0.03	-0.050			
0.1903	12179.02	3.9590	3.9589	-0.9513	25.28	0.02	-0.050			
0.1913	12240.04	3.9580	3.9580	-0.9500	25.29	0.03	-0.050			
0.1922	12301.32	3.9570	3.9571	-0.9513	25.29	0.03	-0.050			
0.1931	12361.41	3.9560	3.9561	-0.9559	25.29	0.03	-0.050			
0.1941	12421.94	3.9550	3.9549	-0.9546	25.28	0.02	-0.050			
0.1950	12482.32	3.9540	3.9542	-0.9534	25.28	0.02	-0.050			
0.1960	12543.57	3.9530	3.9530	-0.9538	25.28	0.02	-0.050			
0.1969	12604.78	3.9520	3.9521	-0.9549	25.29	0.03	-0.050			
0.1979	12665.13	3.9510	3.9509	-0.9554	25.29	0.03	-0.050			
0.1989	12726.51	3.9500	3.9501	-0.9565	25.29	0.03	-0.050			
0.1998	12787.80	3.9490	3.9489	-0.9587	25.28	0.02	-0.050	0.343	0.619	
0.2008	12848.98	3.9480	3.9480	-0.9606	25.28	0.02	-0.050			
0.2017	12910.42	3.9470	3.9469	-0.9598	25.29	0.03	-0.050			
0.2027	12971.74	3.9460	3.9463	-0.9628	25.28	0.02	-0.050			
0.2037	13033.68	3.9450	3.9451	-0.9652	25.27	0.01	-0.050			
0.2046	13096.21	3.9440	3.9440	-0.9666	25.27	0.01	-0.050			
0.2056	13158.71	3.9430	3.9430	-0.9682	25.27	0.01	-0.050			
0.2066	13220.45	3.9420	3.9421	-0.9684	25.26	-0.00	-0.050			
0.2075	13282.80	3.9410	3.9411	-0.9708	25.25	-0.01	-0.050			
0.2085	13344.90	3.9400	3.9399	-0.9700	25.25	-0.01	-0.050			
0.2095	13407.52	3.9390	3.9391	-0.9721	25.24	-0.02	-0.050			
0.2105	13469.85	3.9380	3.9380	-0.9703	25.23	-0.03	-0.050			
0.2114	13531.17	3.9370	3.9370	-0.9688	25.21	-0.05	-0.050			
0.2124	13592.27	3.9360	3.9361	-0.9683	25.21	-0.05	-0.050			
0.2134	13654.65	3.9350	3.9351	-0.9707	25.20	-0.06	-0.050			
0.2143	13716.62	3.9340	3.9340	-0.9764	25.20	-0.06	-0.050			
0.2153	13779.34	3.9330	3.9329	-0.9770	25.20	-0.06	-0.050			
0.2163	13841.52	3.9320	3.9321	-0.9779	25.20	-0.06	-0.050			
0.2173	13904.33	3.9310	3.9310	-0.9791	25.19	-0.07	-0.050			
0.2182	13967.22	3.9300	3.9300	-0.9796	25.20	-0.06	-0.050			
0.2192	14029.71	3.9290	3.9291	-0.9801	25.20	-0.06	-0.050			
0.2202	14092.83	3.9280	3.9279	-0.9831	25.19	-0.07	-0.050	0.319	0.426	
0.2212	14156.05	3.9270	3.9270	-0.9835	25.19	-0.07	-0.050			
0.2222	14219.58	3.9260	3.9260	-0.9838	25.19	-0.07	-0.050			
0.2232	14283.38	3.9250	3.9250	-0.9815	25.20	-0.06	-0.050			
0.2242	14345.87	3.9240	3.9241	-0.9852	25.19	-0.07	-0.050			
0.2251	14409.02	3.9230	3.9229	-0.9844	25.19	-0.07	-0.050			
0.2261	14472.11	3.9220	3.9221	-0.9836	25.19	-0.07	-0.050			
0.2271	14535.31	3.9210	3.9211	-0.9856	25.19	-0.07	-0.050			
0.2281	14598.21	3.9200	3.9200	-0.9843	25.20	-0.06	-0.050			
0.2291	14661.53	3.9190	3.9191	-0.9840	25.20	-0.06	-0.050			
0.2301	14723.38	3.9180	3.9183	-0.9863	25.21	-0.05	-0.050			
0.2310	14786.75	3.9170	3.9170	-0.9846	25.20	-0.06	-0.050			
0.2320	14849.39	3.9160	3.9159	-0.9831	25.20	-0.06	-0.050			
0.2330	14911.67	3.9150	3.9147	-0.9840	25.20	-0.06	-0.050			
0.2340	14974.17	3.9140	3.9142	-0.9842	25.21	-0.05	-0.050			
0.2350	15037.52	3.9130	3.9130	-0.9884	25.21	-0.05	-0.050			
0.2360	15101.04	3.9120	3.9121	-0.9909	25.21	-0.05	-0.050			
0.2369	15164.09	3.9110	3.9112	-0.9917	25.21	-0.05	-0.050			
0.2379	15228.26	3.9100	3.9100	-0.9931	25.21	-0.05	-0.050			
0.2389	15291.85	3.9090	3.9089	-0.9924	25.22	-0.04	-0.050			
0.2399	15355.89	3.9080	3.9079	-0.9934	25.22	-0.04	-0.050	0.314	0.590	
0.2409	15420.21	3.9070	3.9069	-0.9960	25.22	-0.04	-0.050			
0.2419	15484.40	3.9060	3.9060	-0.9951	25.23	-0.03	-0.050			
0.2429	15547.73	3.9050	3.9051	-0.9963	25.22	-0.04	-0.050			
0.2439	15610.42	3.9040	3.9040	-0.9941	25.23	-0.03	-0.050			
0.2449	15674.14	3.9030	3.9030	-0.9970	25.22	-0.04	-0.050			
0.2459	15738.42	3.9020	3.9020	-0.9987	25.22	-0.04	-0.050			
0.2469	15802.23	3.9010	3.9010	-0.9982	25.23	-0.03	-0.050			
0.2479	15866.51	3.9000	3.8999	-0.9998	25.22	-0.04	-0.050			
0.2489	15930.39	3.8990	3.8990	-0.9988	25.23	-0.03	-0.050			
0.2499	15994.11	3.8980	3.8981	-0.9970	25.22	-0.04	-0.050			
0.2509	16058.79	3.8970	3.8971	-1.0001	25.23	-0.03	-0.050			
0.2519	16122.94	3.8960	3.8959	-0.9980	25.23	-0.03	-0.050			
0.2529	16186.94	3.8950	3.8951	-0.9974	25.23	-0.03	-0.050			
0.2539	16250.21	3.8940	3.8941	-0.9977	25.23	-0.03	-0.050			
0.2549	16313.50	3.8930	3.8930	-0.9989	25.23	-0.03	-0.050			
0.2559	16377.04	3.8920	3.8921	-1.0012	25.23	-0.03	-0.050			
0.2569	16441.22	3.8910	3.8911	-1.0039	25.23	-0.03	-0.050			
0.2579	16505.84	3.8900	3.8901	-1.0033	25.23	-0.03	-0.050			
0.2589	16570.40	3.8890	3.8890	-1.0043	25.23	-0.03	-0.050			
0.2599	16634.86	3.8880	3.8882	-1.0070	25.24	-0.02	-0.050	0.298	0.454	
0.2609	16698.92	3.8870	3.8870	-1.0055	25.24	-0.02	-0.050			
0.2619	16763.18	3.8860	3.8858	-1.0062	25.23	-0.03	-0.050			
0.2629	16827.41	3.8850	3.8849	-1.0036	25.23	-0.03	-0.050			
0.2639	16892.31	3.8840	3.8840	-1.0060	25.24	-0.02	-0.050			
0.2650	16956.84	3.8830	3.8830	-1.0048	25.24	-0.02	-0.050			
0.2660	17021.27	3.8820	3.8822	-1.0060	25.24	-0.02	-0.050			
0.2670	17086.35	3.8810	3.8811	-1.0064	25.24	-0.02	-0.050			
0.2680	17151.34	3.8800	3.8800	-1.0069	25.25	-0.01	-0.050			
0.2690	17215.69	3.8790	3.8789	-1.0069	25.24	-0.02	-0.050			
0.2700	17279.69	3.8780	3.8779	-1.0096	25.25	-0.01	-0.050			
0.2710	17343.85	3.8770	3.8769	-1.0094	25.24	-0.02	-0.050			
0.2720	17407.97	3.8760	3.8760	-1.0126	25.24	-0.02	-0.050			
0.2730	17472.43	3.8750	3.8750	-1.0113	25.24	-0.02	-0.050			
0.2740	17536.75	3.8740	3.8739	-1.0111	25.23	-0.03	-0.050			
0.2750	17600.96	3.8730	3.8730	-1.0120	25.23	-0.03	-0.050			
0.2760	17666.08	3.8720	3.8723	-1.0118	25.23	-0.03	-0.050			
0.2771	17731.51	3.8710	3.8709	-1.0139	25.22	-0.04	-0.050			
0.2781	17796.47	3.8700	3.8700	-1.0170	25.20	-0.06	-0.050			
0.2791	17861.70	3.8690	3.8689	-1.0187	25.20	-0.06	-0.050			
0.2801	17927.47	3.8680	3.8678	-1.0161	25.20	-0.06	-0.050			
0.2811	17993.27	3.8670	3.8668	-1.0174	25.21	-0.05	-0.050			
0.2822	18058.28	3.8660	3.8662	-1.0189	25.19	-0.07	-0.050			
0.2832	18124.27	3.8650	3.8649	-1.0183	25.18	-0.08	-0.050			
0.2842	18189.79	3.8640	3.8641	-1.0172	25.19	-0.07	-0.050			
0.2852	18254.53	3.8630	3.8631	-1.0176	25.18	-0.08	-0.050			
0.2862	18319.56	3.8620	3.8619	-1.0154	25.18	-0.08	-0.050			
0.2873	18384.31	3.8610	3.8609	-1.0165	25.18	-0.08	-0.050			
0.2883	18448.80	3.8600	3.8598	-1.0149	25.19	-0.07	-0.050			
0.2893	18513.60	3.8590	3.8591	-1.0138	25.18	-0.08	-0.050			
0.2903	18577.58	3.8580	3.8578	-1.0110	25.19	-0.07	-0.050			
0.2913	18642.71	3.8570	3.8568	-1.0137	25.18	-0.08	-0.050			
0.2923	18706.99	3.8560	3.8558	-1.0127	25.18	-0.08	-0.050			
0.2933	18772.36	3.8550	3.8548	-1.0145	25.19	-0.07	-0.050			
0.2943	18836.76	3.8540	3.8540	-1.0162	25.19	-0.07	-0.050			
0.2953	18901.51	3.8530	3.8530	-1.0201	25.20	-0.06	-0.050			
0.2964	18967.27	3.8520	3.8518	-1.0192	25.19	-0.07	-0.050			
0.2974	19032.61	3.8510	3.8510	-1.0190	25.20	-0.06	-0.050			
0.2984	19097.76	3.8500	3.8502	-1.0178	25.19	-0.07	-0.050			
0.2994	19163.79	3.8490	3.8488	-1.0186	25.20	-0.06	-0.050			
0.3005	19229.13	3.8480	3.8482	-1.0232	25.20	-0.06	-0.050	0.341	0.390	
0.3015	19294.42	3.8470	3.8470	-1.0213	25.20	-0.06	-0.050			
0.3025	19359.77	3.8460	3.8459	-1.0216	25.21	-0.05	-0.050			
0.3035	19425.07	3.8450	3.8451	-1.0218	25.21	-0.05	-0.050			
0.3045	19490.68	3.8440	3.8441	-1.0234	25.22	-0.04	-0.050			
0.3056	19556.36	3.8430	3.8431	-1.0220	25.21	-0.05	-0.050			
0.3066	19622.42	3.8420	3.8419	-1.0219	25.22	-0.04	-0.050			
0.3076	19687.83	3.8410	3.8408	-1.0210	25.22	-0.04	-0.050			
0.3086	19753.40	3.8400	3.8400	-1.0215	25.21	-0.05	-0.050			
0.3097	19818.51	3.8390	3.8388	-1.0238	25.22	-0.04	-0.050			
0.3107	19883.40	3.8380	3.8381	-1.0236	25.22	-0.04	-0.050			
0.3117	19949.24	3.8370	3.8371	-1.0218	25.21	-0.05	-0.050			
0.3127	20014.37	3.8360	3.8362	-1.0219	25.22	-0.04	-0.050			
0.3137	20079.42	3.8350	3.8350	-1.0214	25.22	-0.04	-0.050			
0.3148	20145.02	3.8340	3.8339	-1.0205	25.22	-0.04	-0.050			
0.3158	20210.75	3.8330	3.8330	-1.0195	25.23	-0.03	-0.050			
0.3168	20276.28	3.8320	3.8320	-1.0209	25.23	-0.03	-0.050			
0.3179	20342.52	3.8310	3.8309	-1.0182	25.23	-0.03	-0.050			
0.3189	20407.85	3.8300	3.8300	-1.0157	25.23	-0.03	-0.050			
0.3199	20472.55	3.8290	3.8290	-1.0151	25.24	-0.02	-0.050	0.461	0.508	
0.3209	20536.88	3.8280	3.8281	-1.0110	25.23	-0.03	-0.050			
0.3219	20602.57	3.8270	3.8270	-1.0099	25.24	-0.02	-0.050			
0.3229	20667.18	3.8260	3.8260	-1.0069	25.24	-0.02	-0.050			
0.3239	20732.14	3.8250	3.8252	-1.0062	25.24	-0.02	-0.050			
0.3249	20795.49	3.8240	3.8240	-1.0050	25.25	-0.01	-0.050			
0.3259	20859.35	3.8230	3.8228	-1.0037	25.25	-0.01	-0.050			
0.3269	20923.84	3.8220	3.8223	-1.0018	25.24	-0.02	-0.050			
0.3279	20988.48	3.8210	3.8208	-0.9993	25.25	-0.01	-0.050			
0.3289	21051.78	3.8200	3.8199	-0.9943	25.25	-0.01	-0.050			
0.3299	21115.13	3.8190	3.8190	-0.9898	25.25	-0.01	-0.050			
0.3309	21178.92	3.8180	3.8180	-0.9884	25.25	-0.01	-0.050			
0.3319	21242.28	3.8170	3.8168	-0.9876	25.25	-0.01	-0.050			
0.3329	21304.94	3.8160	3.8161	-0.9852	25.26	0.00	-0.050			
0.3339	21368.02	3.8150	3.8148	-0.9820	25.26	0.00	-0.050			
0.3349	21431.44	3.8140	3.8141	-0.9809	25.26	0.00	-0.050			
0.3358	21493.97	3.8130	3.8131	-0.9792	25.27	0.01	-0.050			
0.3368	21556.00	3.8120	3.8121	-0.9778	25.27	0.01	-0.050			
0.3378	21619.06	3.8110	3.8108	-0.9753	25.27	0.01	-0.050			
0.3388	21682.08	3.8100	3.8099	-0.9705	25.27	0.01	-0.050			
0.3397	21743.87	3.8090	3.8088	-0.9667	25.27	0.01	-0.050			
0.3407	21806.09	3.8080	3.8081	-0.9619	25.27	0.01	-0.050	-0.009	0.484	
0.3417	21868.05	3.8070	3.8071	-0.9590	25.27	0.01	-0.050			
0.3426	21929.12	3.8060	3.8060	-0.9533	25.28	0.02	-0.050			
0.3436	21989.61	3.8050	3.8050	-0.9501	25.27	0.01	-0.050			
0.3445	22049.88	3.8040	3.8039	-0.9450	25.27	0.01	-0.050			
0.3455	22110.91	3.8030	3.8031	-0.9428	25.28	0.02	-0.050			
0.3464	22171.91	3.8020	3.8021	-0.9400	25.27	0.01	-0.050			
0.3474	22232.23	3.8010	3.8011	-0.9348	25.27	0.01	-0.050			
0.3483	22292.58	3.8000	3.7998	-0.9273	25.26	0.00	-0.050			
0.3493	22352.34	3.7990	3.7990	-0.9189	25.25	-0.01	-0.050			
0.3502	22410.73	3.7980	3.7977	-0.9110	25.24	-0.02	-0.050			
0.3511	22468.12	3.7970	3.7969	-0.9055	25.24	-0.02	-0.050			
0.3520	22526.54	3.7960	3.7960	-0.8987	25.24	-0.02	-0.050			
0.3529	22583.96	3.7950	3.7950	-0.8920	25.22	-0.04	-0.050			
0.3538	22641.19	3.7940	3.7941	-0.8819	25.21	-0.05	-0.050			
0.3546	22697.26	3.7930	3.7931	-0.8732	25.21	-0.05	-0.050			
0.3555	22752.93	3.7920	3.7921	-0.8671	25.21	-0.05	-0.050			
0.3564	22808.03	3.7910	3.7912	-0.8633	25.21	-0.05	-0.050			
0.3572	22863.34	3.7900	3.7899	-0.8577	25.19	-0.07	-0.050			
0.3581	22917.41	3.7890	3.7889	-0.8491	25.19	-0.07	-0.050			
0.3589	22971.10	3.7880	3.7880	-0.8432	25.20	-0.06	-0.050			
0.3597	23023.85	3.7870	3.7871	-0.8373	25.20	-0.06	-0.050			
0.3606	23077.01	3.7860	3.7860	-0.8300	25.20	-0.06	-0.050			
0.3614	23129.48	3.7850	3.7851	-0.8240	25.20	-0.06	-0.050			
0.3622	23182.26	3.7840	3.7837	-0.8177	25.19	-0.07	-0.050			
0.3630	23234.79	3.7830	3.7827	-0.8132	25.20	-0.06	-0.050			
0.3639	23286.79	3.7820	3.7820	-0.8086	25.20	-0.06	-0.050			
0.3647	23338.88	3.7810	3.7811	-0.8039	25.20	-0.06	-0.050			
0.3655	23390.46	3.7800	3.7800	-0.7990	25.19	-0.07	-0.050			
0.3663	23441.46	3.7790	3.7790	-0.7938	25.19	-0.07	-0.050			
0.3671	23491.95	3.7780	3.7780	-0.7875	25.20	-0.06	-0.050			
0.3678	23541.84	3.7770	3.7768	-0.7816	25.19	-0.07	-0.050			
0.3686	23591.75	3.7760	3.7761	-0.7784	25.20	-0.06	-0.050			
0.3694	23641.88	3.7750	3.7750	-0.7762	25.20	-0.06	-0.050			
0.3702	23690.80	3.7740	3.7739	-0.7727	25.20	-0.06	-0.050			
0.3709	23739.82	3.7730	3.7731	-0.7661	25.20	-0.06	-0.050			
0.3717	23788.26	3.7720	3.7721	-0.7598	25.21	-0.05	-0.050			
0.3724	23835.34	3.7710	3.7708	-0.7576	25.21	-0.05	-0.050			
0.3732	23884.02	3.7700	3.7699	-0.7557	25.21	-0.05	-0.050			
0.3739	23931.63	3.7690	3.7690	-0.7548	25.22	-0.04	-0.050			
0.3747	23979.63	3.7680	3.7679	-0.7532	25.21	-0.05	-0.050			
0.3754	24027.01	3.7670	3.7670	-0.7525	25.20	-0.06	-0.050			
0.3762	24075.51	3.7660	3.7660	-0.7509	25.21	-0.05	-0.050			
0.3769	24124.44	3.7650	3.7649	-0.7501	25.21	-0.05	-0.050			
0.3777	24172.33	3.7640	3.7641	-0.7480	25.20	-0.06	-0.050			
0.3784	24219.60	3.7630	3.7630	-0.7502	25.21	-0.05	-0.050			
0.3792	24267.30	3.7620	3.7619	-0.7483	25.22	-0.04	-0.050			
0.3799	24315.61	3.7610	3.7607	-0.7496	25.22	-0.04	-0.050			
0.3807	24363.11	3.7600	3.7600	-0.7501	25.22	-0.04	-0.050			
0.3814	24410.13	3.7590	3.7591	-0.7530	25.22	-0.04	-0.050			
0.3822	24457.99	3.7580	3.7580	-0.7549	25.22	-0.04	-0.050			
0.3829	24505.85	3.7570	3.7571	-0.7563	25.23	-0.03	-0.050			
0.3837	24554.17	3.7560	3.7562	-0.7583	25.23	-0.03	-0.050			
0.3844	24602.19	3.7550	3.7549	-0.7606	25.22	-0.04	-0.050			
0.3852	24650.56	3.7540	3.7538	-0.7651	25.22	-0.04	-0.050			
0.3859	24699.69	3.7530	3.7531	-0.7690	25.22	-0.04	-0.050			
0.3867	24748.62	3.7520	3.7521	-0.7766	25.21	-0.05	-0.050			
0.3875	24796.83	3.7510	3.7509	-0.7800	25.22	-0.04	-0.050			
0.3882	24846.58	3.7500	3.7501	-0.7850	25.22	-0.04	-0.050			
0.3890	24896.45	3.7490	3.7491	-0.7965	25.22	-0.04	-0.050			
0.3898	24947.40	3.7480	3.7481	-0.8030	25.22	-0.04	-0.050			
0.3906	24998.80	3.7470	3.7470	-0.8122	25.22	-0.04	-0.050			
0.3914	25051.33	3.7460	3.7459	-0.8216	25.21	-0.05	-0.050			
0.3923	25104.66	3.7450	3.7448	-0.8308	25.22	-0.04	-0.050			
0.3931	25157.45	3.7440	3.7439	-0.8401	25.21	-0.05	-0.050			
0.3939	25209.90	3.7430	3.7431	-0.8490	25.22	-0.04	-0.050			
0.3947	25263.59	3.7420	3.7421	-0.8635	25.22	-0.04	-0.050			
0.3956	25319.44	3.7410	3.7411	-0.8762	25.23	-0.03	-0.050			
0.3965	25375.39	3.7400	3.7398	-0.8879	25.22	-0.04	-0.050			
0.3974	25431.80	3.7390	3.7392	-0.9003	25.22	-0.04	-0.050			
0.3983	25489.68	3.7380	3.7379	-0.9160	25.21	-0.05	-0.050			
0.3992	25548.23	3.7370	3.7369	-0.9329	25.21	-0.05	-0.050			
0.4001	25608.89	3.7360	3.7362	-0.9469	25.22	-0.04	-0.050	0.322	0.559	
0.4011	25670.28	3.7350	3.7349	-0.9596	25.21	-0.05	-0.050			
0.4021	25732.06	3.7340	3.7340	-0.9745	25.21	-0.05	-0.050			
0.4030	25794.70	3.7330	3.7328	-0.9888	25.21	-0.05	-0.050			
0.4040	25857.58	3.7320	3.7322	-1.0052	25.21	-0.05	-0.050			
0.4050	25921.57	3.7310	3.7310	-1.0238	25.21	-0.05	-0.050			
0.4061	25987.63	3.7300	3.7301	-1.0415	25.21	-0.05	-0.050			
0.4071	26053.52	3.7290	3.7290	-1.0614	25.21	-0.05	-0.050			
0.4082	26121.89	3.7280	3.7281	-1.0839	25.21	-0.05	-0.050			
0.4093	26192.37	3.7270	3.7271	-1.1015	25.21	-0.05	-0.050			
0.4104	26263.66	3.7260	3.7260	-1.1187	25.21	-0.05	-0.050			
0.4115	26335.30	3.7250	3.7248	-1.1415	25.20	-0.06	-0.050			
0.4126	26409.06	3.7240	3.7241	-1.1574	25.20	-0.06	-0.050			
0.4138	26483.85	3.7230	3.7228	-1.1742	25.19	-0.07	-0.050			
0.4150	26559.59	3.7220	3.7220	-1.1933	25.19	-0.07	-0.050			
0.4162	26637.14	3.7210	3.7210	-1.2142	25.18	-0.08	-0.050			
0.4174	26715.68	3.7200	3.7200	-1.2340	25.18	-0.08	-0.050			
0.4187	26796.13	3.7190	3.7193	-1.2502	25.18	-0.08	-0.050			
0.4200	26877.89	3.7180	3.7180	-1.2652	25.16	-0.10	-0.050	0.290	0.525	
0.4213	26960.22	3.7170	3.7170	-1.2828	25.16	-0.10	-0.050			
0.4226	27044.39	3.7160	3.7159	-1.3006	25.16	-0.10	-0.050			
0.4239	27127.38	3.7150	3.7151	-1.3182	25.15	-0.11	-0.050			
0.4252	27211.30	3.7140	3.7140	-1.3331	25.15	-0.11	-0.050			
0.4265	27296.34	3.7130	3.7130	-1.3493	25.15	-0.11	-0.050			
0.4279	27382.58	3.7120	3.7120	-1.3640	25.15	-0.11	-0.050			
0.4292	27470.07	3.7110	3.7110	-1.3809	25.14	-0.12	-0.050			
0.4306	27558.35	3.7100	3.7102	-1.3997	25.14	-0.12	-0.050			
0.4320	27646.38	3.7090	3.7090	-1.4204	25.15	-0.11	-0.050			
0.4334	27738.41	3.7080	3.7078	-1.4406	25.15	-0.11	-0.050			
0.4349	27832.13	3.7070	3.7070	-1.4601	25.15	-0.11	-0.050			
0.4363	27926.31	3.7060	3.7057	-1.4766	25.16	-0.10	-0.050			
0.4378	28021.10	3.7050	3.7050	-1.4934	25.16	-0.10	-0.050			
0.4393	28117.19	3.7040	3.7039	-1.5192	25.16	-0.10	-0.050			
0.4409	28215.26	3.7030	3.7030	-1.5368	25.16	-0.10	-0.050	0.466	0.492	
0.4424	28314.94	3.7020	3.7020	-1.5550	25.18	-0.08	-0.050			
0.4440	28415.21	3.7010	3.7008	-1.5749	25.18	-0.08	-0.050			
0.4456	28517.57	3.7000	3.6999	-1.5941	25.19	-0.07	-0.050			
0.4472	28620.12	3.6990	3.6992	-1.6181	25.19	-0.07	-0.050			
0.4488	28724.54	3.6980	3.6981	-1.6355	25.19	-0.07	-0.050			
0.4505	28830.56	3.6970	3.6969	-1.6501	25.19	-0.07	-0.050			
0.4521	28936.93	3.6960	3.6960	-1.6651	25.20	-0.06	-0.050			
0.4538	29044.41	3.6950	3.6948	-1.6779	25.20	-0.06	-0.050			
0.4555	29151.83	3.6940	3.6940	-1.6969	25.21	-0.05	-0.050			
0.4572	29260.10	3.6930	3.6932	-1.7170	25.21	-0.05	-0.050			
0.4589	29370.50	3.6920	3.6918	-1.7349	25.21	-0.05	-0.050			
0.4606	29481.41	3.6910	3.6910	-1.7531	25.22	-0.04	-0.050			
0.4624	29594.91	3.6900	3.6902	-1.7671	25.23	-0.03	-0.050			
0.4642	29709.23	3.6890	3.6891	-1.7821	25.24	-0.02	-0.050			
0.4660	29824.91	3.6880	3.6880	-1.8010	25.23	-0.03	-0.050			
0.4678	29941.12	3.6870	3.6870	-1.8188	25.25	-0.01	-0.050			
0.4697	30058.25	3.6860	3.6862	-1.8315	25.25	-0.01	-0.050			
0.4715	30173.79	3.6850	3.6848	-1.8495	25.26	-0.00	-0.050			
0.4733	30292.49	3.6840	3.6839	-1.8649	25.26	-0.00	-0.050			
0.4752	30411.85	3.6830	3.6831	-1.8905	25.28	0.02	-0.050			
0.4771	30533.13	3.6820	3.6820	-1.9084	25.27	0.01	-0.050			
0.4790	30655.43	3.6810	3.6810	-1.9245	25.27	0.01	-0.050			
0.4809	30780.05	3.6800	3.6800	-1.9415	25.28	0.02	-0.050	0.477	0.572	
0.4829	30903.71	3.6790	3.6788	-1.9622	25.27	0.01	-0.050			
0.4848	31029.88	3.6780	3.6781	-1.9889	25.28	0.02	-0.050			
0.4868	31157.62	3.6770	3.6769	-2.0108	25.27	0.01	-0.050			
0.4888	31286.11	3.6760	3.6758	-2.0258	25.26	0.00	-0.050			
0.4909	31415.44	3.6750	3.6750	-2.0520	25.26	-0.00	-0.050			
0.4929	31545.32	3.6740	3.6739	-2.0766	25.25	-0.01	-0.050			
0.4950	31678.93	3.6730	3.6732	-2.0999	25.22	-0.04	-0.050			
0.4971	31814.76	3.6720	3.6721	-2.1282	25.20	-0.06	-0.050			
0.4993	31952.04	3.6710	3.6708	-2.1571	25.19	-0.07	-0.050			
0.5014	32091.47	3.6700	3.6699	-2.1846	25.15	-0.11	-0.050	0.112	0.630	
0.5036	32232.16	3.6690	3.6692	-2.2100	25.15	-0.11	-0.050			
0.5058	32372.47	3.6680	3.6683	-2.2399	25.14	-0.12	-0.050			
0.5081	32516.48	3.6670	3.6670	-2.2693	25.14	-0.12	-0.050			
0.5103	32660.75	3.6660	3.6659	-2.3031	25.14	-0.12	-0.050			
0.5126	32808.49	3.6650	3.6651	-2.3303	25.15	-0.11	-0.050			
0.5150	32958.39	3.6640	3.6643	-2.3647	25.15	-0.11	-0.050			
0.5174	33112.39	3.6630	3.6630	-2.3920	25.16	-0.10	-0.050			
0.5198	33267.43	3.6620	3.6618	-2.4265	25.16	-0.10	-0.050	0.397	0.469	
0.5222	33423.17	3.6610	3.6611	-2.4617	25.18	-0.08	-0.050			
0.5247	33580.74	3.6600	3.6599	-2.4904	25.19	-0.07	-0.050			
0.5272	33740.92	3.6590	3.6588	-2.5229	25.20	-0.06	-0.050			
0.5297	33903.89	3.6580	3.6580	-2.5535	25.21	-0.05	-0.050			
0.5323	34069.18	3.6570	3.6570	-2.5897	25.22	-0.04	-0.050			
0.5349	34235.16	3.6560	3.6562	-2.6232	25.24	-0.02	-0.050			
0.5376	34403.88	3.6550	3.6550	-2.6511	25.26	-0.00	-0.050			
0.5403	34576.49	3.6540	3.6541	-2.6813	25.26	0.00	-0.050			
0.5430	34749.85	3.6530	3.6529	-2.7072	25.26	0.00	-0.050			
0.5457	34923.71	3.6520	3.6521	-2.7363	25.28	0.02	-0.050			
0.5485	35101.09	3.6510	3.6511	-2.7624	25.29	0.03	-0.050			
0.5512	35278.60	3.6500	3.6503	-2.7877	25.29	0.03	-0.050			
0.5540	35455.85	3.6490	3.6491	-2.8162	25.28	0.02	-0.050			
0.5568	35637.60	3.6480	3.6481	-2.8476	25.28	0.02	-0.050			
0.5597	35821.53	3.6470	3.6472	-2.8721	25.27	0.01	-0.050	0.320	0.679	
0.5626	36006.25	3.6460	3.6461	-2.9066	25.26	0.00	-0.050			
0.5655	36193.46	3.6450	3.6452	-2.9327	25.24	-0.02	-0.050			
0.5685	36380.92	3.6440	3.6438	-2.9585	25.22	-0.04	-0.050			
0.5714	36569.59	3.6430	3.6431	-2.9873	25.19	-0.07	-0.050			
0.5744	36763.07	3.6420	3.6419	-3.0177	25.16	-0.10	-0.050			
0.5775	36957.79	3.6410	3.6410	-3.0487	25.12	-0.14	-0.050			
0.5805	37152.48	3.6400	3.6402	-3.0777	25.10	-0.16	-0.050	0.368	0.572	
0.5836	37352.00	3.6390	3.6389	-3.1091	25.09	-0.17	-0.050			
0.5868	37555.07	3.6380	3.6380	-3.1351	25.08	-0.18	-0.050			
0.5900	37758.34	3.6370	3.6370	-3.1541	25.08	-0.18	-0.050			
0.5932	37961.87	3.6360	3.6359	-3.1672	25.09	-0.17	-0.050			
0.5963	38166.13	3.6350	3.6349	-3.1914	25.10	-0.16	-0.050			
0.5996	38372.04	3.6340	3.6340	-3.1972	25.12	-0.14	-0.050	0.143	0.545	
0.6028	38576.13	3.6330	3.6328	-3.2156	25.14	-0.12	-0.050			
0.6060	38783.20	3.6320	3.6321	-3.2410	25.15	-0.11	-0.050			
0.6092	38990.40	3.6310	3.6311	-3.2483	25.18	-0.08	-0.050			
0.6125	39201.54	3.6300	3.6300	-3.2500	25.21	-0.05	-0.050			
0.6158	39408.74	3.6290	3.6292	-3.2540	25.23	-0.03	-0.050			
0.6190	39618.99	3.6280	3.6282	-3.2545	25.25	-0.01	-0.050	0.376	0.583	
0.6224	39830.58	3.6270	3.6269	-3.2433	25.28	0.02	-0.050			
0.6256	40039.67	3.6260	3.6260	-3.2272	25.29	0.03	-0.050			
0.6289	40249.55	3.6250	3.6248	-3.2026	25.29	0.03	-0.050			
0.6322	40459.44	3.6240	3.6241	-3.1916	25.28	0.02	-0.050			
0.6354	40665.08	3.6230	3.6231	-3.1602	25.28	0.02	-0.050			
0.6386	40868.24	3.6220	3.6219	-3.1239	25.27	0.01	-0.050			
0.6417	41068.00	3.6210	3.6211	-3.0802	25.26	0.00	-0.050	0.476	0.582	
0.6448	41264.46	3.6200	3.6200	-3.0267	25.24	-0.02	-0.050			
0.6478	41458.38	3.6190	3.6188	-2.9759	25.22	-0.04	-0.050			
0.6507	41647.76	3.6180	3.6178	-2.9115	25.20	-0.06	-0.050			
0.6537	41836.00	3.6170	3.6169	-2.8578	25.19	-0.07	-0.050			
0.6565	42017.50	3.6160	3.6160	-2.8018	25.19	-0.07	-0.050			
0.6593	42195.50	3.6150	3.6151	-2.7432	25.19	-0.07	-0.050	0.042	0.558	
0.6620	42367.10	3.6140	3.6142	-2.6777	25.19	-0.07	-0.050			
0.6646	42534.67	3.6130	3.6128	-2.6154	25.21	-0.05	-0.050			
0.6672	42700.49	3.6120	3.6123	-2.5642	25.21	-0.05	-0.050			
0.6697	42860.17	3.6110	3.6109	-2.5102	25.22	-0.04	-0.050			
0.6721	43015.90	3.6100	3.6101	-2.4555	25.22	-0.04	-0.050			
0.6746	43171.92	3.6090	3.6087	-2.4023	25.24	-0.02	-0.050			
0.6769	43320.83	3.6080	3.6082	-2.3537	25.26	0.00	-0.050			
0.6792	43467.40	3.6070	3.6072	-2.3054	25.27	0.01	-0.050			
0.6814	43609.80	3.6060	3.6061	-2.2644	25.27	0.01	-0.050	0.195	0.660	
0.6836	43747.98	3.6050	3.6050	-2.2347	25.29	0.03	-0.050			
0.6857	43887.31	3.6040	3.6039	-2.2005	25.30	0.04	-0.050			
0.6879	44024.93	3.6030	3.6030	-2.1802	25.30	0.04	-0.050			
0.6900	44160.43	3.6020	3.6019	-2.1534	25.31	0.05	-0.050			
0.6921	44297.22	3.6010	3.6008	-2.1351	25.31	0.05	-0.050			
0.6942	44431.67	3.6000	3.5999	-2.1171	25.31	0.05	-0.050			
0.6963	44566.09	3.5990	3.5992	-2.1039	25.31	0.05	-0.050			
0.6984	44698.75	3.5980	3.5981	-2.0853	25.31	0.05	-0.050			
0.7005	44832.24	3.5970	3.5968	-2.0652	25.31	0.05	-0.050	0.463	0.557	
0.7026	44963.82	3.5960	3.5959	-2.0535	25.29	0.03	-0.050			
0.7046	45096.43	3.5950	3.5951	-2.0395	25.30	0.04	-0.050			
0.7067	45226.37	3.5940	3.5939	-2.0237	25.29	0.03	-0.050			
0.7087	45356.98	3.5930	3.5931	-2.0072	25.29	0.03	-0.050			
0.7107	45486.08	3.5920	3.5918	-1.9924	25.27	0.01	-0.050			
0.7127	45613.82	3.5910	3.5910	-1.9750	25.28	0.02	-0.050			
0.7147	45739.31	3.5900	3.5901	-1.9579	25.26	0.00	-0.050			
0.7166	45864.91	3.5890	3.5893	-1.9390	25.27	0.01	-0.050			
0.7186	45989.19	3.5880	3.5880	-1.9184	25.26	0.00	-0.050			
0.7205	46112.17	3.5870	3.5869	-1.8967	25.26	-0.00	-0.050	0.215	0.544	
0.7224	46231.41	3.5860	3.5861	-1.8714	25.24	-0.02	-0.050			
0.7242	46350.06	3.5850	3.5848	-1.8486	25.24	-0.02	-0.050			
0.7261	46468.99	3.5840	3.5841	-1.8300	25.24	-0.02	-0.050			
0.7279	46584.32	3.5830	3.5832	-1.8102	25.23	-0.03	-0.050			
0.7297	46699.69	3.5820	3.5821	-1.7915	25.23	-0.03	-0.050			
0.7315	46813.34	3.5810	3.5810	-1.7700	25.23	-0.03	-0.050			
0.7332	46924.32	3.5800	3.5801	-1.7504	25.23	-0.03	-0.050			
0.7349	47034.55	3.5790	3.5792	-1.7364	25.24	-0.02	-0.050			
0.7366	47144.22	3.5780	3.5780	-1.7273	25.24	-0.02	-0.050			
0.7383	47252.19	3.5770	3.5770	-1.7171	25.24	-0.02	-0.050			
0.7400	47359.32	3.5760	3.5760	-1.7050	25.25	-0.01	-0.050	0.005	0.557	
0.7417	47467.71	3.5750	3.5751	-1.6978	25.25	-0.01	-0.050			
0.7433	47572.75	3.5740	3.5739	-1.6928	25.27	0.01	-0.050			
0.7450	47679.93	3.5730	3.5731	-1.6894	25.27	0.01	-0.050			
0.7467	47787.61	3.5720	3.5722	-1.6845	25.28	0.02	-0.050			
0.7484	47894.63	3.5710	3.5708	-1.6835	25.28	0.02	-0.050			
0.7500	48000.68	3.5700	3.5699	-1.6862	25.30	0.04	-0.050			
0.7517	48110.08	3.5690	3.5690	-1.6898	25.31	0.05	-0.050			
0.7534	48217.91	3.5680	3.5679	-1.6932	25.32	0.06	-0.050			
0.7551	48326.22	3.5670	3.5670	-1.6978	25.32	0.06	-0.050			
0.7568	48435.11	3.5660	3.5662	-1.7002	25.33	0.07	-0.050			
0.7585	48543.88	3.5650	3.5650	-1.7018	25.33	0.07	-0.050			
0.7602	48655.33	3.5640	3.5641	-1.6996	25.33	0.07	-0.050	0.436	0.597	
0.7620	48766.16	3.5630	3.5630	-1.6939	25.34	0.08	-0.050			
0.7637	48877.53	3.5620	3.5619	-1.6858	25.34	0.08	-0.050			
0.7654	48987.48	3.5610	3.5609	-1.6756	25.33	0.07	-0.050			
0.7671	49095.82	3.5600	3.5603	-1.6603	25.34	0.08	-0.050			
0.7688	49204.15	3.5590	3.5589	-1.6427	25.32	0.06	-0.050			
0.7705	49310.49	3.5580	3.5580	-1.6244	25.32	0.06	-0.050			
0.7721	49416.08	3.5570	3.5574	-1.6067	25.32	0.06	-0.050			
0.7737	49519.90	3.5560	3.5561	-1.5853	25.31	0.05	-0.050			
0.7753	49622.30	3.5550	3.5551	-1.5586	25.30	0.04	-0.050			
0.7769	49722.17	3.5540	3.5539	-1.5309	25.30	0.04	-0.050			
0.7785	49822.00	3.5530	3.5530	-1.5040	25.29	0.03	-0.050			
0.7800	49917.86	3.5520	3.5518	-1.4712	25.29	0.03	-0.050	0.303	0.612	
0.7814	50009.70	3.5510	3.5509	-1.4364	25.28	0.02	-0.050			
0.7828	50100.08	3.5500	3.5500	-1.4037	25.28	0.02	-0.050			
0.7842	50189.41	3.5490	3.5488	-1.3721	25.28	0.02	-0.050			
0.7855	50274.52	3.5480	3.5480	-1.3388	25.27	0.01	-0.050			
0.7869	50358.53	3.5470	3.5468	-1.3040	25.27	0.01	-0.050			
0.7881	50441.33	3.5460	3.5459	-1.2746	25.28	0.02	-0.050			
0.7894	50522.80	3.5450	3.5450	-1.2442	25.28	0.02	-0.050			
0.7906	50601.39	3.5440	3.5441	-1.2206	25.28	0.02	-0.050			
0.7918	50678.18	3.5430	3.5428	-1.1930	25.27	0.01	-0.050			
0.7930	50752.00	3.5420	3.5418	-1.1671	25.27	0.01	-0.050			
0.7941	50824.05	3.5410	3.5410	-1.1388	25.27	0.01	-0.050			
0.7952	50894.67	3.5400	3.5401	-1.1184	25.27	0.01	-0.050			
0.7963	50963.72	3.5390	3.5391	-1.0976	25.26	0.00	-0.050			
0.7974	51031.20	3.5380	3.5381	-1.0750	25.25	-0.01	-0.050			
0.7984	51097.76	3.5370	3.5367	-1.0565	25.26	-0.00	-0.050			
0.7994	51163.93	3.5360	3.5359	-1.0410	25.24	-0.02	-0.050			
0.8005	51228.82	3.5350	3.5350	-1.0320	25.24	-0.02	-0.050	0.374	0.526	
0.8014	51291.97	3.5340	3.5341	-1.0221	25.24	-0.02	-0.050			
0.8024	51356.72	3.5330	3.5330	-1.0152	25.24	-0.02	-0.050			
0.8034	51418.79	3.5320	3.5320	-1.0096	25.24	-0.02	-0.050			
0.8044	51481.87	3.5310	3.5310	-1.0033	25.23	-0.03	-0.050			
0.8054	51544.83	3.5300	3.5299	-1.0005	25.24	-0.02	-0.050			
0.8064	51607.41	3.5290	3.5291	-1.0038	25.23	-0.03	-0.050			
0.8074	51670.88	3.5280	3.5279	-1.0043	25.23	-0.03	-0.050			
0.8084	51735.24	3.5270	3.5269	-1.0074	25.22	-0.04	-0.050			
0.8094	51799.08	3.5260	3.5258	-1.0078	25.23	-0.03	-0.050			
0.8104	51863.28	3.5250	3.5250	-1.0102	25.23	-0.03	-0.050			
0.8114	51928.47	3.5240	3.5240	-1.0048	25.23	-0.03	-0.050			
0.8124	51993.23	3.5230	3.5227	-1.0076	25.23	-0.03	-0.050			
0.8134	52059.98	3.5220	3.5219	-1.0066	25.24	-0.02	-0.050			
0.8145	52125.40	3.5210	3.5207	-1.0056	25.23	-0.03	-0.050			
0.8155	52191.84	3.5200	3.5200	-0.9997	25.24	-0.02	-0.050			
0.8165	52257.75	3.5190	3.5191	-0.9978	25.23	-0.03	-0.050			
0.8175	52322.76	3.5180	3.5180	-0.9923	25.24	-0.02	-0.050			
0.8186	52387.21	3.5170	3.5169	-0.9848	25.25	-0.01	-0.050			
0.8195	52450.28	3.5160	3.5160	-0.9744	25.25	-0.01	-0.050			
0.8205	52512.52	3.5150	3.5151	-0.9612	25.26	-0.00	-0.050	0.492	0.658	
0.8215	52573.74	3.5140	3.5139	-0.9539	25.26	-0.00	-0.050			
0.8224	52634.54	3.5130	3.5131	-0.9433	25.27	0.01	-0.050			
0.8233	52694.18	3.5120	3.5121	-0.9316	25.26	0.00	-0.050			
0.8243	52753.08	3.5110	3.5111	-0.9218	25.26	0.00	-0.050			
0.8252	52810.24	3.5100	3.5099	-0.9140	25.27	0.01	-0.050			
0.8260	52865.57	3.5090	3.5090	-0.9068	25.27	0.01	-0.050			
0.8269	52922.48	3.5080	3.5082	-0.9034	25.28	0.02	-0.050			
0.8278	52978.06	3.5070	3.5070	-0.9026	25.27	0.01	-0.050			
0.8287	53033.82	3.5060	3.5060	-0.9013	25.29	0.03	-0.050			
0.8295	53089.58	3.5050	3.5048	-0.9064	25.28	0.02	-0.050			
0.8304	53144.83	3.5040	3.5042	-0.9149	25.28	0.02	-0.050			
0.8313	53201.74	3.5030	3.5031	-0.9238	25.28	0.02	-0.050			
0.8321	53256.36	3.5020	3.5020	-0.9411	25.27	0.01	-0.050			
0.8330	53313.74	3.5010	3.5009	-0.9639	25.27	0.01	-0.050			
0.8339	53371.58	3.5000	3.4999	-0.9862	25.27	0.01	-0.050			
0.8348	53427.97	3.4990	3.4992	-1.0283	25.26	0.00	-0.050			
0.8358	53488.51	3.4980	3.4981	-1.0641	25.27	0.01	-0.050			
0.8367	53550.11	3.4970	3.4973	-1.1226	25.27	0.01	-0.050			
0.8378	53616.62	3.4960	3.4961	-1.1872	25.26	0.00	-0.050			
0.8389	53687.64	3.4950	3.4950	-1.2605	25.25	-0.01	-0.050			
0.8400	53762.60	3.4940	3.4940	-1.3310	25.25	-0.01	-0.050	0.129	0.735	
0.8413	53843.01	3.4930	3.4930	-1.4248	25.24	-0.02	-0.050			
0.8427	53930.36	3.4920	3.4919	-1.5131	25.24	-0.02	-0.050			
0.8442	54029.00	3.4910	3.4910	-1.6122	25.23	-0.03	-0.050			
0.8458	54132.92	3.4900	3.4897	-1.7113	25.21	-0.05	-0.050			
0.8476	54245.79	3.4890	3.4891	-1.8152	25.20	-0.06	-0.050			
0.8495	54369.67	3.4880	3.4879	-1.9203	25.20	-0.06	-0.050			
0.8516	54504.13	3.4870	3.4868	-2.0118	25.19	-0.07	-0.050			
0.8538	54643.80	3.4860	3.4859	-2.0966	25.19	-0.07	-0.050			
0.8561	54788.36	3.4850	3.4848	-2.1775	25.19	-0.07	-0.050			
0.8584	54938.26	3.4840	3.4840	-2.2481	25.20	-0.06	-0.050			
0.8608	55091.07	3.4830	3.4829	-2.2974	25.21	-0.05	-0.050	0.215	0.600	
0.8633	55250.55	3.4820	3.4821	-2.3516	25.20	-0.06	-0.050			
0.8658	55411.53	3.4810	3.4811	-2.3785	25.20	-0.06	-0.050			
0.8683	55572.44	3.4800	3.4801	-2.3919	25.19	-0.07	-0.050			
0.8708	55734.01	3.4790	3.4791	-2.3998	25.19	-0.07	-0.050			
0.8733	55893.25	3.4780	3.4780	-2.3913	25.16	-0.10	-0.050			
0.8758	56052.60	3.4770	3.4772	-2.3735	25.15	-0.11	-0.050			
0.8783	56208.59	3.4760	3.4759	-2.3467	25.16	-0.10	-0.050			
0.8806	56361.56	3.4750	3.4748	-2.3119	25.15	-0.11	-0.050	0.271	0.557	
0.8830	56509.43	3.4740	3.4740	-2.2702	25.16	-0.10	-0.050			
0.8852	56655.91	3.4730	3.4730	-2.2239	25.16	-0.10	-0.050			
0.8875	56796.99	3.4720	3.4721	-2.1746	25.16	-0.10	-0.050			
0.8896	56936.12	3.4710	3.4710	-2.1232	25.16	-0.10	-0.050			
0.8918	57072.26	3.4700	3.4700	-2.0709	25.18	-0.08	-0.050			
0.8938	57205.20	3.4690	3.4691	-2.0202	25.18	-0.08	-0.050			
0.8959	57335.62	3.4680	3.4680	-1.9643	25.19	-0.07	-0.050			
0.8978	57460.54	3.4670	3.4671	-1.9015	25.19	-0.07	-0.050			
0.8997	57581.32	3.4660	3.4660	-1.8400	25.19	-0.07	-0.050			
0.9015	57695.78	3.4650	3.4649	-1.7758	25.19	-0.07	-0.050	0.662	0.676	
0.9033	57808.03	3.4640	3.4639	-1.7161	25.19	-0.07	-0.050			
0.9049	57915.75	3.4630	3.4630	-1.6542	25.18	-0.08	-0.050			
0.9066	58020.94	3.4620	3.4619	-1.5946	25.17	-0.09	-0.050			
0.9081	58121.32	3.4610	3.4611	-1.5330	25.19	-0.07	-0.050			
0.9096	58217.06	3.4600	3.4599	-1.4705	25.18	-0.08	-0.050			
0.9111	58307.58	3.4590	3.4591	-1.4106	25.18	-0.08	-0.050			
0.9124	58396.74	3.4580	3.4580	-1.3512	25.18	-0.08	-0.050			
0.9137	58479.67	3.4570	3.4569	-1.2890	25.17	-0.09	-0.050			
0.9150	58559.38	3.4560	3.4559	-1.2314	25.17	-0.09	-0.050			
0.9162	58635.85	3.4550	3.4549	-1.1727	25.18	-0.08	-0.050			
0.9173	58706.94	3.4540	3.4540	-1.1209	25.19	-0.07	-0.050			
0.9184	58775.10	3.4530	3.4531	-1.0665	25.19	-0.07	-0.050			
0.9194	58840.83	3.4520	3.4520	-1.0168	25.18	-0.08	-0.050			
0.9204	58903.39	3.4510	3.4510	-0.9682	25.19	-0.07	-0.050	0.406	0.554	
0.9213	58963.33	3.4500	3.4500	-0.9183	25.20	-0.06	-0.050			
0.9222	59019.12	3.4490	3.4493	-0.8714	25.20	-0.06	-0.050			
0.9230	59073.21	3.4480	3.4479	-0.8285	25.20	-0.06	-0.050			
0.9238	59123.08	3.4470	3.4469	-0.7858	25.20	-0.06	-0.050			
0.9245	59170.17	3.4460	3.4459	-0.7396	25.21	-0.05	-0.050			
0.9252	59214.10	3.4450	3.4448	-0.7014	25.22	-0.04	-0.050			
0.9259	59255.72	3.4440	3.4441	-0.6665	25.21	-0.05	-0.050			
0.9265	59296.21	3.4430	3.4431	-0.6294	25.22	-0.04	-0.050			
0.9271	59333.55	3.4420	3.4419	-0.6004	25.22	-0.04	-0.050			
0.9276	59368.18	3.4410	3.4411	-0.5723	25.22	-0.04	-0.050			
0.9282	59402.73	3.4400	3.4400	-0.5423	25.23	-0.03	-0.050			
0.9286	59433.27	3.4390	3.4393	-0.5181	25.23	-0.03	-0.050			
0.9291	59465.53	3.4380	3.4379	-0.4951	25.23	-0.03	-0.050			
0.9296	59494.56	3.4370	3.4367	-0.4775	25.23	-0.03	-0.050			
0.9300	59521.65	3.4360	3.4359	-0.4530	25.24	-0.02	-0.050			
0.9305	59549.26	3.4350	3.4347	-0.4396	25.24	-0.02	-0.050			
0.9308	59573.90	3.4340	3.4341	-0.4189	25.23	-0.03	-0.050			
0.9312	59599.08	3.4330	3.4330	-0.4059	25.23	-0.03	-0.050			
0.9316	59624.36	3.4320	3.4319	-0.3941	25.24	-0.02	-0.050			
0.9320	59648.12	3.4310	3.4310	-0.3832	25.24	-0.02	-0.050			
0.9324	59672.35	3.4300	3.4300	-0.3738	25.25	-0.01	-0.050			
0.9327	59695.55	3.4290	3.4290	-0.3656	25.25	-0.01	-0.050			
0.9331	59718.52	3.4280	3.4281	-0.3565	25.25	-0.01	-0.050			
0.9334	59740.69	3.4270	3.4270	-0.3491	25.25	-0.01	-0.050			
0.9338	59762.77	3.4260	3.4260	-0.3409	25.25	-0.01	-0.050			
0.9341	59783.39	3.4250	3.4250	-0.3338	25.25	-0.01	-0.050			
0.9344	59804.08	3.4240	3.4239	-0.3257	25.25	-0.01	-0.050			
0.9348	59824.12	3.4230	3.4229	-0.3210	25.26	-0.00	-0.050			
0.9351	59844.13	3.4220	3.4218	-0.3144	25.26	-0.00	-0.050			
0.9354	59863.49	3.4210	3.4211	-0.3077	25.26	0.00	-0.050			
0.9357	59883.02	3.4200	3.4201	-0.3027	25.26	0.00	-0.050			
0.9360	59901.84	3.4190	3.4189	-0.2969	25.26	-0.00	-0.050			
0.9363	59920.23	3.4180	3.4180	-0.2940	25.25	-0.01	-0.050			
0.9365	59938.39	3.4170	3.4171	-0.2890	25.25	-0.01	-0.050			
0.9368	59956.28	3.4160	3.4160	-0.2872	25.24	-0.02	-0.050			
0.9371	59974.22	3.4150	3.4150	-0.2835	25.24	-0.02	-0.050			
0.9374	59992.28	3.4140	3.4140	-0.2809	25.25	-0.01	-0.050			
0.9377	60010.64	3.4130	3.4130	-0.2762	25.25	-0.01	-0.050			
0.9379	60028.22	3.4120	3.4120	-0.2730	25.25	-0.01	-0.050			
0.9382	60045.54	3.4110	3.4111	-0.2698	25.25	-0.01	-0.050			
0.9385	60062.22	3.4100	3.4100	-0.2691	25.25	-0.01	-0.050			
0.9387	60079.05	3.4090	3.4088	-0.2662	25.25	-0.01	-0.050			
0.9390	60095.81	3.4080	3.4079	-0.2648	25.26	-0.00	-0.050			
0.9393	60112.60	3.4070	3.4068	-0.2628	25.26	-0.00	-0.050			
0.9395	60129.06	3.4060	3.4063	-0.2619	25.26	0.00	-0.050			
0.9398	60145.62	3.4050	3.4052	-0.2601	25.26	0.00	-0.050			
0.9400	60162.23	3.4040	3.4043	-0.2588	25.26	0.00	-0.050			
0.9403	60178.65	3.4030	3.4032	-0.2563	25.26	-0.00	-0.050			
0.9405	60195.02	3.4020	3.4020	-0.2550	25.25	-0.01	-0.050			
0.9408	60211.16	3.4010	3.4009	-0.2534	25.24	-0.02	-0.050	0.428	0.652	
0.9411	60227.35	3.4000	3.3999	-0.2523	25.24	-0.02	-0.050			
0.9413	60243.46	3.3990	3.3992	-0.2512	25.24	-0.02	-0.050			
0.9416	60259.66	3.3980	3.3981	-0.2510	25.24	-0.02	-0.050			
0.9418	60275.69	3.3970	3.3970	-0.2497	25.24	-0.02	-0.050			
0.9420	60291.02	3.3960	3.3961	-0.2477	25.24	-0.02	-0.050			
0.9423	60306.85	3.3950	3.3952	-0.2471	25.24	-0.02	-0.050			
0.9425	60322.65	3.3940	3.3941	-0.2464	25.24	-0.02	-0.050			
0.9428	60338.51	3.3930	3.3931	-0.2450	25.24	-0.02	-0.050			
0.9430	60354.17	3.3920	3.3919	-0.2443	25.24	-0.02	-0.050			
0.9433	60369.78	3.3910	3.3910	-0.2435	25.24	-0.02	-0.050			
0.9435	60386.31	3.3900	3.3899	-0.2435	25.24	-0.02	-0.050			
0.9438	60401.85	3.3890	3.3888	-0.2419	25.24	-0.02	-0.050			
0.9440	60416.51	3.3880	3.3880	-0.2392	25.25	-0.01	-0.050			
0.9443	60432.02	3.3870	3.3870	-0.2374	25.25	-0.01	-0.050			
0.9445	60447.38	3.3860	3.3859	-0.2367	25.25	-0.01	-0.050			
0.9447	60462.50	3.3850	3.3852	-0.2353	25.24	-0.02	-0.050			
0.9450	60477.51	3.3840	3.3841	-0.2339	25.24	-0.02	-0.050			
0.9452	60492.48	3.3830	3.3830	-0.2326	25.24	-0.02	-0.050			
0.9454	60506.98	3.3820	3.3821	-0.2323	25.24	-0.02	-0.050			
0.9457	60522.10	3.3810	3.3810	-0.2319	25.24	-0.02	-0.050			
0.9459	60536.90	3.3800	3.3801	-0.2306	25.24	-0.02	-0.050			
0.9461	60551.46	3.3790	3.3790	-0.2299	25.24	-0.02	-0.050			
0.9463	60565.88	3.3780	3.3781	-0.2283	25.24	-0.02	-0.050			
0.9466	60580.46	3.3770	3.3769	-0.2274	25.24	-0.02	-0.050			
0.9468	60594.83	3.3760	3.3759	-0.2255	25.24	-0.02	-0.050			
0.9470	60609.24	3.3750	3.3750	-0.2248	25.24	-0.02	-0.050			
0.9472	60623.60	3.3740	3.3739	-0.2240	25.24	-0.02	-0.050			
0.9475	60638.12	3.3730	3.3729	-0.2218	25.24	-0.02	-0.050			
0.9477	60652.28	3.3720	3.3719	-0.2208	25.24	-0.02	-0.050			
0.9479	60666.38	3.3710	3.3710	-0.2198	25.24	-0.02	-0.050			
0.9481	60680.13	3.3700	3.3701	-0.2209	25.24	-0.02	-0.050			
0.9483	60694.25	3.3690	3.3692	-0.2203	25.24	-0.02	-0.050			
0.9486	60708.49	3.3680	3.3680	-0.2192	25.24	-0.02	-0.050			
0.9488	60722.57	3.3670	3.3671	-0.2186	25.24	-0.02	-0.050			
0.9490	60736.54	3.3660	3.3661	-0.2178	25.25	-0.01	-0.050			
0.9492	60751.16	3.3650	3.3648	-0.2164	25.25	-0.01	-0.050			
0.9495	60764.96	3.3640	3.3641	-0.2149	25.25	-0.01	-0.050			
0.9497	60778.67	3.3630	3.3630	-0.2134	25.25	-0.01	-0.050			
0.9499	60792.37	3.3620	3.3616	-0.2121	25.24	-0.02	-0.050			
0.9501	60805.77	3.3610	3.3610	-0.2109	25.24	-0.02	-0.050			
0.9503	60819.22	3.3600	3.3597	-0.2094	25.24	-0.02	-0.050			
0.9505	60832.34	3.3590	3.3592	-0.2076	25.24	-0.02	-0.050			
0.9507	60845.51	3.3580	3.3581	-0.2066	25.25	-0.01	-0.050			
0.9509	60858.70	3.3570	3.3575	-0.2055	25.25	-0.01	-0.050			
0.9511	60872.01	3.3560	3.3567	-0.2047	25.25	-0.01	-0.050			
0.9513	60884.67	3.3550	3.3546	-0.2046	25.25	-0.01	-0.050			
0.9515	60897.74	3.3540	3.3541	-0.2037	25.25	-0.01	-0.050			
0.9517	60910.81	3.3530	3.3531	-0.2029	25.25	-0.01	-0.050			
0.9519	60923.45	3.3520	3.3520	-0.2030	25.25	-0.01	-0.050			
0.9521	60936.42	3.3510	3.3506	-0.2024	25.25	-0.01	-0.050			
0.9523	60949.05	3.3500	3.3501	-0.2014	25.25	-0.01	-0.050			
0.9525	60962.04	3.3490	3.3490	-0.2007	25.25	-0.01	-0.050			
0.9527	60974.09	3.3480	3.3478	-0.1980	25.25	-0.01	-0.050			
0.9529	60986.77	3.3470	3.3469	-0.1983	25.25	-0.01	-0.050			
0.9531	61000.06	3.3460	3.3460	-0.1970	25.25	-0.01	-0.050			
0.9533	61013.04	3.3450	3.3449	-0.1979	25.25	-0.01	-0.050			
0.9535	61025.69	3.3440	3.3439	-0.1973	25.25	-0.01	-0.050			
0.9537	61038.30	3.3430	3.3432	-0.1967	25.25	-0.01	-0.050			
0.9539	61050.54	3.3420	3.3423	-0.1977	25.25	-0.01	-0.050			
0.9541	61063.59	3.3410	3.3408	-0.1982	25.25	-0.01	-0.050			
0.9543	61076.26	3.3400	3.3401	-0.1977	25.25	-0.01	-0.050			
0.9545	61089.20	3.3390	3.3390	-0.1960	25.25	-0.01	-0.050			
0.9547	61101.80	3.3380	3.3381	-0.1953	25.26	-0.00	-0.050			
0.9549	61114.27	3.3370	3.3367	-0.1944	25.26	-0.00	-0.050			
0.9551	61127.02	3.3360	3.3362	-0.1924	25.26	0.00	-0.050			
0.9553	61139.54	3.3350	3.3350	-0.1918	25.26	0.00	-0.050			
0.9555	61151.77	3.3340	3.3339	-0.1904	25.26	0.00	-0.050			
0.9557	61163.91	3.3330	3.3327	-0.1889	25.26	0.00	-0.050			
0.9559	61175.62	3.3320	3.3317	-0.1880	25.26	0.00	-0.050			
0.9561	61187.62	3.3310	3.3312	-0.1869	25.26	0.00	-0.050			
0.9562	61199.54	3.3300	3.3303	-0.1858	25.26	0.00	-0.050			
0.9564	61210.67	3.3290	3.3293	-0.1862	25.26	0.00	-0.050			
0.9566	61222.58	3.3280	3.3282	-0.1858	25.26	0.00	-0.050			
0.9568	61234.46	3.3270	3.3272	-0.1854	25.26	0.00	-0.050			
0.9570	61246.21	3.3260	3.3263	-0.1849	25.26	0.00	-0.050			
0.9572	61257.88	3.3250	3.3252	-0.1850	25.26	0.00	-0.050			
0.9573	61269.72	3.3240	3.3243	-0.1848	25.26	0.00	-0.050			
0.9575	61281.54	3.3230	3.3227	-0.1847	25.26	0.00	-0.050			
0.9577	61293.20	3.3220	3.3217	-0.1837	25.26	0.00	-0.050			
0.9579	61304.96	3.3210	3.3208	-0.1837	25.26	0.00	-0.050			
0.9581	61316.71	3.3200	3.3201	-0.1836	25.27	0.01	-0.050			
0.9582	61327.57	3.3190	3.3191	-0.1823	25.27	0.01	-0.050			
0.9584	61339.88	3.3180	3.3174	-0.1811	25.27	0.01	-0.050			
0.9586	61351.48	3.3170	3.3172	-0.1812	25.27	0.01	-0.050			
0.9588	61363.83	3.3160	3.3160	-0.1828	25.27	0.01	-0.050			
0.9590	61375.68	3.3150	3.3152	-0.1818	25.27	0.01	-0.050			
0.9592	61387.29	3.3140	3.3140	-0.1811	25.27	0.01	-0.050			
0.9594	61398.86	3.3130	3.3130	-0.1803	25.27	0.01	-0.050			
0.9596	61411.24	3.3120	3.3121	-0.1807	25.27	0.01	-0.050			
0.9597	61422.83	3.3110	3.3112	-0.1791	25.27	0.01	-0.050			
0.9599	61434.25	3.3100	3.3101	-0.1776	25.27	0.01	-0.050			
0.9601	61445.71	3.3090	3.3088	-0.1764	25.27	0.01	-0.050			
0.9603	61456.95	3.3080	3.3080	-0.1747	25.27	0.01	-0.050			
0.9604	61467.67	3.3070	3.3071	-0.1744	25.27	0.01	-0.050			
0.9606	61478.80	3.3060	3.3060	-0.1732	25.27	0.01	-0.050			
0.9608	61489.34	3.3050	3.3050	-0.1712	25.27	0.01	-0.050	0.461	0.730	
0.9609	61500.10	3.3040	3.3041	-0.1708	25.27	0.01	-0.050			
0.9611	61511.01	3.3030	3.3031	-0.1702	25.27	0.01	-0.050			
0.9613	61521.79	3.3020	3.3022	-0.1693	25.27	0.01	-0.050			
0.9614	61532.60	3.3010	3.3011	-0.1687	25.28	0.02	-0.050			
0.9616	61543.27	3.3000	3.2999	-0.1684	25.28	0.02	-0.050			
0.9618	61554.03	3.2990	3.2989	-0.1679	25.28	0.02	-0.050			
0.9619	61564.54	3.2980	3.2980	-0.1671	25.28	0.02	-0.050			
0.9621	61575.23	3.2970	3.2969	-0.1668	25.28	0.02	-0.050			
0.9623	61585.89	3.2960	3.2960	-0.1664	25.28	0.02	-0.050			
0.9624	61596.41	3.2950	3.2952	-0.1658	25.28	0.02	-0.050			
0.9626	61607.01	3.2940	3.2940	-0.1656	25.28	0.02	-0.050			
0.9628	61617.60	3.2930	3.2929	-0.1654	25.28	0.02	-0.050			
0.9629	61628.29	3.2920	3.2918	-0.1647	25.28	0.02	-0.050			
0.9631	61638.81	3.2910	3.2909	-0.1644	25.28	0.02	-0.050			
0.9633	61649.32	3.2900	3.2901	-0.1640	25.28	0.02	-0.050			
0.9634	61659.80	3.2890	3.2892	-0.1637	25.28	0.02	-0.050			
0.9636	61670.46	3.2880	3.2882	-0.1626	25.28	0.02	-0.050			
0.9638	61681.24	3.2870	3.2869	-0.1630	25.28	0.02	-0.050			
0.9639	61691.64	3.2860	3.2859	-0.1622	25.28	0.02	-0.050			
0.9641	61702.00	3.2850	3.2850	-0.1614	25.28	0.02	-0.050			
0.9643	61712.19	3.2840	3.2841	-0.1606	25.28	0.02	-0.050			
0.9644	61722.45	3.2830	3.2831	-0.1599	25.28	0.02	-0.050			
0.9646	61732.66	3.2820	3.2820	-0.1592	25.28	0.02	-0.050			
0.9647	61742.82	3.2810	3.2809	-0.1585	25.28	0.02	-0.050			
0.9649	61752.96	3.2800	3.2799	-0.1580	25.28	0.02	-0.050			
0.9650	61763.05	3.2790	3.2789	-0.1573	25.28	0.02	-0.050			
0.9652	61773.10	3.2780	3.2781	-0.1566	25.28	0.02	-0.050			
0.9654	61783.10	3.2770	3.2772	-0.1559	25.28	0.02	-0.050			
0.9655	61792.68	3.2760	3.2762	-0.1558	25.28	0.02	-0.050			
0.9657	61802.63	3.2750	3.2752	-0.1554	25.29	0.03	-0.050			
0.9658	61812.57	3.2740	3.2738	-0.1550	25.29	0.03	-0.050			
0.9660	61822.48	3.2730	3.2731	-0.1546	25.29	0.03	-0.050			
0.9661	61832.48	3.2720	3.2721	-0.1534	25.29	0.03	-0.050			
0.9663	61842.28	3.2710	3.2710	-0.1529	25.29	0.03	-0.050			
0.9664	61852.05	3.2700	3.2699	-0.1524	25.29	0.03	-0.050			
0.9666	61861.79	3.2690	3.2690	-0.1519	25.29	0.03	-0.050			
0.9667	61871.52	3.2680	3.2682	-0.1514	25.29	0.03	-0.050			
0.9669	61881.27	3.2670	3.2669	-0.1507	25.29	0.03	-0.050			
0.9670	61890.89	3.2660	3.2658	-0.1501	25.29	0.03	-0.050			
0.9672	61900.48	3.2650	3.2649	-0.1495	25.29	0.03	-0.050			
0.9673	61910.29	3.2640	3.2641	-0.1492	25.29	0.03	-0.050			
0.9675	61919.98	3.2630	3.2631	-0.1481	25.29	0.03	-0.050			
0.9676	61929.43	3.2620	3.2621	-0.1471	25.29	0.03	-0.050			
0.9678	61938.82	3.2610	3.2611	-0.1462	25.29	0.03	-0.050			
0.9679	61948.34	3.2600	3.2596	-0.1455	25.29	0.03	-0.050			
0.9681	61957.16	3.2590	3.2587	-0.1455	25.28	0.02	-0.050			
0.9682	61966.45	3.2580	3.2580	-0.1448	25.28	0.02	-0.050			
0.9684	61975.69	3.2570	3.2572	-0.1440	25.28	0.02	-0.050			
0.9685	61984.80	3.2560	3.2563	-0.1432	25.28	0.02	-0.050			
0.9687	61993.95	3.2550	3.2553	-0.1426	25.28	0.02	-0.050			
0.9688	62002.87	3.2540	3.2537	-0.1425	25.28	0.02	-0.050			
0.9689	62011.97	3.2530	3.2529	-0.1420	25.28	0.02	-0.050			
0.9691	62020.59	3.2520	3.2520	-0.1406	25.28	0.02	-0.050			
0.9692	62029.59	3.2510	3.2506	-0.1405	25.28	0.02	-0.050			
0.9694	62038.57	3.2500	3.2502	-0.1403	25.28	0.02	-0.050			
0.9695	62047.42	3.2490	3.2492	-0.1408	25.28	0.02	-0.050			
0.9696	62056.43	3.2480	3.2478	-0.1409	25.28	0.02	-0.050			
0.9698	62065.31	3.2470	3.2468	-0.1407	25.28	0.02	-0.050			
0.9699	62074.32	3.2460	3.2460	-0.1409	25.28	0.02	-0.050			
0.9701	62083.63	3.2450	3.2454	-0.1401	25.28	0.02	-0.050			
0.9702	62092.59	3.2440	3.2439	-0.1399	25.28	0.02	-0.050			
0.9703	62101.50	3.2430	3.2426	-0.1397	25.28	0.02	-0.050			
0.9705	62110.44	3.2420	3.2418	-0.1396	25.28	0.02	-0.050			
0.9706	62119.46	3.2410	3.2409	-0.1393	25.28	0.02	-0.050			
0.9708	62128.37	3.2400	3.2400	-0.1391	25.28	0.02	-0.050			
0.9709	62137.57	3.2390	3.2392	-0.1396	25.28	0.02	-0.050			
0.9710	62146.50	3.2380	3.2381	-0.1392	25.28	0.02	-0.050			
0.9712	62155.39	3.2370	3.2372	-0.1388	25.28	0.02	-0.050			
0.9713	62164.32	3.2360	3.2357	-0.1382	25.28	0.02	-0.050			
0.9715	62173.15	3.2350	3.2351	-0.1377	25.29	0.03	-0.050			
0.9716	62181.92	3.2340	3.2340	-0.1372	25.29	0.03	-0.050			
0.9717	62190.69	3.2330	3.2330	-0.1368	25.29	0.03	-0.050			
0.9719	62199.43	3.2320	3.2320	-0.1363	25.29	0.03	-0.050			
0.9720	62208.20	3.2310	3.2308	-0.1356	25.29	0.03	-0.050			
0.9721	62216.87	3.2300	3.2302	-0.1351	25.29	0.03	-0.050			
0.9723	62225.70	3.2290	3.2291	-0.1349	25.29	0.03	-0.050			
0.9724	62234.31	3.2280	3.2280	-0.1342	25.29	0.03	-0.050			
0.9725	62242.77	3.2270	3.2270	-0.1339	25.29	0.03	-0.050			
0.9727	62251.32	3.2260	3.2261	-0.1333	25.29	0.03	-0.050			
0.9728	62259.62	3.2250	3.2249	-0.1324	25.29	0.03	-0.050			
0.9729	62268.08	3.2240	3.2241	-0.1320	25.29	0.03	-0.050			
0.9731	62276.51	3.2230	3.2231	-0.1316	25.29	0.03	-0.050			
0.9732	62285.03	3.2220	3.2218	-0.1308	25.29	0.03	-0.050			
0.9733	62293.57	3.2210	3.2209	-0.1308	25.29	0.03	-0.050			
0.9735	62301.92	3.2200	3.2201	-0.1302	25.29	0.03	-0.050			
0.9736	62310.23	3.2190	3.2191	-0.1295	25.29	0.03	-0.050			
0.9737	62318.50	3.2180	3.2179	-0.1289	25.29	0.03	-0.050			
0.9739	62326.57	3.2170	3.2167	-0.1289	25.30	0.04	-0.050			
0.9740	62334.61	3.2160	3.2160	-0.1279	25.30	0.04	-0.050			
0.9741	62342.78	3.2150	3.2151	-0.1275	25.30	0.04	-0.050			
0.9742	62350.93	3.2140	3.2141	-0.1271	25.30	0.04	-0.050			
0.9744	62359.05	3.2130	3.2129	-0.1268	25.30	0.04	-0.050			
0.9745	62367.15	3.2120	3.2118	-0.1264	25.30	0.04	-0.050			
0.9746	62375.34	3.2110	3.2111	-0.1257	25.30	0.04	-0.050			
0.9747	62383.37	3.2100	3.2101	-0.1252	25.29	0.03	-0.050			
0.9749	62391.37	3.2090	3.2089	-0.1248	25.29	0.03	-0.050			
0.9750	62399.34	3.2080	3.2080	-0.1243	25.29	0.03	-0.050			
0.9751	62407.28	3.2070	3.2071	-0.1240	25.29	0.03	-0.050			
0.9752	62415.20	3.2060	3.2057	-0.1235	25.29	0.03	-0.050			
0.9754	62423.09	3.2050	3.2048	-0.1231	25.30	0.04	-0.050			
0.9755	62430.95	3.2040	3.2042	-0.1226	25.30	0.04	-0.050			
0.9756	62438.78	3.2030	3.2031	-0.1221	25.30	0.04	-0.050			
0.9757	62446.46	3.2020	3.2020	-0.1216	25.31	0.05	-0.050			
0.9758	62454.23	3.2010	3.2008	-0.1213	25.31	0.05	-0.050			
0.9760	62461.98	3.2000	3.2003	-0.1209	25.31	0.05	-0.050			
0.9761	62469.70	3.1990	3.1990	-0.1205	25.31	0.05	-0.050			
0.9762	62477.40	3.1980	3.1980	-0.1201	25.31	0.05	-0.050			
0.9763	62485.16	3.1970	3.1971	-0.1199	25.31	0.05	-0.050			
0.9764	62492.75	3.1960	3.1960	-0.1196	25.30	0.04	-0.050			
0.9766	62500.39	3.1950	3.1949	-0.1192	25.30	0.04	-0.050			
0.9767	62508.00	3.1940	3.1940	-0.1188	25.30	0.04	-0.050			
0.9768	62515.59	3.1930	3.1930	-0.1184	25.30	0.04	-0.050			
0.9769	62523.16	3.1920	3.1918	-0.1181	25.30	0.04	-0.050			
0.9770	62530.44	3.1910	3.1909	-0.1174	25.30	0.04	-0.050			
0.9772	62538.47	3.1900	3.1900	-0.1161	25.30	0.04	-0.050			
0.9773	62545.88	3.1890	3.1888	-0.1154	25.31	0.05	-0.050			
0.9774	62553.25	3.1880	3.1877	-0.1148	25.31	0.05	-0.050			
0.9775	62561.01	3.1870	3.1869	-0.1149	25.31	0.05	-0.050			
0.9776	62568.33	3.1860	3.1859	-0.1140	25.31	0.05	-0.050			
0.9777	62574.90	3.1850	3.1852	-0.1145	25.31	0.05	-0.050			
0.9778	62582.22	3.1840	3.1843	-0.1141	25.31	0.05	-0.050			
0.9780	62589.51	3.1830	3.1830	-0.1137	25.31	0.05	-0.050			
0.9781	62596.60	3.1820	3.1821	-0.1130	25.31	0.05	-0.050			
0.9782	62603.83	3.1810	3.1813	-0.1127	25.31	0.05	-0.050			
0.9783	62610.81	3.1800	3.1802	-0.1129	25.31	0.05	-0.050			
0.9784	62618.03	3.1790	3.1792	-0.1127	25.31	0.05	-0.050			
0.9785	62625.24	3.1780	3.1780	-0.1126	25.31	0.05	-0.050			
0.9786	62632.44	3.1770	3.1768	-0.1125	25.31	0.05	-0.050			
0.9787	62639.24	3.1760	3.1760	-0.1117	25.31	0.05	-0.050			
0.9788	62646.39	3.1750	3.1749	-0.1118	25.31	0.05	-0.050			
0.9790	62653.77	3.1740	3.1734	-0.1115	25.31	0.05	-0.050			
0.9791	62660.91	3.1730	3.1728	-0.1115	25.31	0.05	-0.050			
0.9792	62668.04	3.1720	3.1722	-0.1115	25.31	0.05	-0.050			
0.9793	62675.18	3.1710	3.1711	-0.1115	25.31	0.05	-0.050			
0.9794	62682.16	3.1700	3.1698	-0.1112	25.31	0.05	-0.050			
0.9795	62689.28	3.1690	3.1690	-0.1113	25.31	0.05	-0.050			
0.9796	62696.41	3.1680	3.1683	-0.1114	25.31	0.05	-0.050			
0.9797	62704.00	3.1670	3.1670	-0.1099	25.32	0.06	-0.050			
0.9799	62711.02	3.1660	3.1659	-0.1096	25.32	0.06	-0.050			
0.9800	62719.04	3.1650	3.1650	-0.1110	25.32	0.06	-0.050			
0.9801	62726.11	3.1640	3.1641	-0.1101	25.32	0.06	-0.050			
0.9802	62733.13	3.1630	3.1629	-0.1092	25.32	0.06	-0.050			
0.9803	62740.07	3.1620	3.1619	-0.1083	25.32	0.06	-0.050			
0.9804	62746.97	3.1610	3.1611	-0.1073	25.32	0.06	-0.050			
0.9805	62753.75	3.1600	3.1602	-0.1063	25.31	0.05	-0.050			
0.9806	62760.52	3.1590	3.1590	-0.1054	25.31	0.05	-0.050			
0.9807	62767.24	3.1580	3.1581	-0.1045	25.31	0.05	-0.050	0.263	0.563	
0.9808	62773.24	3.1570	3.1571	-0.1052	25.31	0.05	-0.050			
0.9809	62779.96	3.1560	3.1561	-0.1048	25.31	0.05	-0.050			
0.9810	62786.65	3.1550	3.1549	-0.1044	25.31	0.05	-0.050			
0.9811	62793.05	3.1540	3.1539	-0.1034	25.31	0.05	-0.050			
0.9812	62799.66	3.1530	3.1532	-0.1032	25.31	0.05	-0.050			
0.9813	62806.26	3.1520	3.1523	-0.1030	25.32	0.06	-0.050			
0.9814	62812.78	3.1510	3.1508	-0.1029	25.32	0.06	-0.050			
0.9816	62819.36	3.1500	3.1496	-0.1027	25.32	0.06	-0.050			
0.9817	62825.93	3.1490	3.1487	-0.1025	25.32	0.06	-0.050			
0.9818	62832.48	3.1480	3.1486	-0.1023	25.32	0.06	-0.050			
0.9818	62838.39	3.1470	3.1469	-0.1015	25.32	0.06	-0.050			
0.9820	62845.38	3.1460	3.1455	-0.1008	25.32	0.06	-0.050			
0.9821	62851.83	3.1450	3.1445	-0.1007	25.32	0.06	-0.050			
0.9822	62858.27	3.1440	3.1439	-0.1006	25.32	0.06	-0.050			
0.9823	62864.70	3.1430	3.1433	-0.1004	25.32	0.06	-0.050			
0.9824	62871.46	3.1420	3.1421	-0.1007	25.32	0.06	-0.050			
0.9825	62877.90	3.1410	3.1410	-0.1004	25.32	0.06	-0.050			
0.9826	62884.36	3.1400	3.1401	-0.0999	25.32	0.06	-0.050			
0.9827	62890.74	3.1390	3.1390	-0.0995	25.32	0.06	-0.050			
0.9828	62897.09	3.1380	3.1379	-0.0991	25.32	0.06	-0.050			
0.9829	62903.85	3.1370	3.1371	-0.0996	25.33	0.07	-0.050			
0.9830	62910.20	3.1360	3.1364	-0.0989	25.33	0.07	-0.050			
0.9831	62916.50	3.1350	3.1351	-0.0982	25.33	0.07	-0.050			
0.9832	62922.64	3.1340	3.1338	-0.0978	25.33	0.07	-0.050			
0.9833	62928.88	3.1330	3.1328	-0.0972	25.34	0.08	-0.050			
0.9834	62935.08	3.1320	3.1318	-0.0966	25.34	0.08	-0.050			
0.9835	62940.90	3.1310	3.1310	-0.0954	25.34	0.08	-0.050			
0.9835	62946.99	3.1300	3.1300	-0.0950	25.34	0.08	-0.050			
0.9836	62953.05	3.1290	3.1291	-0.0945	25.34	0.08	-0.050			
0.9837	62958.77	3.1280	3.1281	-0.0950	25.34	0.08	-0.050			
0.9838	62964.85	3.1270	3.1272	-0.0948	25.34	0.08	-0.050			
0.9839	62970.68	3.1260	3.1261	-0.0942	25.34	0.08	-0.050			
0.9840	62976.70	3.1250	3.1250	-0.0942	25.34	0.08	-0.050			
0.9841	62982.73	3.1240	3.1240	-0.0941	25.34	0.08	-0.050			
0.9842	62988.75	3.1230	3.1230	-0.0941	25.34	0.08	-0.050			
0.9843	62994.78	3.1220	3.1221	-0.0941	25.34	0.08	-0.050			
0.9844	63000.80	3.1210	3.1209	-0.0941	25.34	0.08	-0.050			
0.9845	63006.77	3.1200	3.1199	-0.0939	25.34	0.08	-0.050			
0.9846	63012.78	3.1190	3.1189	-0.0939	25.34	0.08	-0.050			
0.9847	63018.80	3.1180	3.1179	-0.0940	25.34	0.08	-0.050			
0.9848	63024.81	3.1170	3.1169	-0.0940	25.34	0.08	-0.050			
0.9849	63030.83	3.1160	3.1159	-0.0940	25.34	0.08	-0.050			
0.9850	63037.10	3.1150	3.1147	-0.0930	25.34	0.08	-0.050			
0.9850	63043.16	3.1140	3.1141	-0.0931	25.34	0.08	-0.050			
0.9851	63049.10	3.1130	3.1133	-0.0928	25.34	0.08	-0.050			
0.9852	63055.04	3.1120	3.1120	-0.0926	25.34	0.08	-0.050			
0.9853	63060.95	3.1110	3.1110	-0.0923	25.34	0.08	-0.050			
0.9854	63066.86	3.1100	3.1101	-0.0921	25.34	0.08	-0.050			
0.9855	63072.74	3.1090	3.1090	-0.0918	25.35	0.09	-0.050			
0.9856	63079.13	3.1080	3.1079	-0.0922	25.35	0.09	-0.050			
0.9857	63085.01	3.1070	3.1069	-0.0916	25.35	0.09	-0.050			
0.9858	63090.85	3.1060	3.1059	-0.0910	25.35	0.09	-0.050			
0.9859	63096.66	3.1050	3.1052	-0.0905	25.35	0.09	-0.050			
0.9860	63102.43	3.1040	3.1042	-0.0899	25.35	0.09	-0.050			
0.9861	63107.96	3.1030	3.1031	-0.0899	25.35	0.09	-0.050			
0.9861	63113.58	3.1020	3.1020	-0.0890	25.35	0.09	-0.050			
0.9862	63119.26	3.1010	3.1009	-0.0887	25.35	0.09	-0.050			
0.9863	63124.93	3.1000	3.0999	-0.0883	25.35	0.09	-0.050			
0.9864	63130.56	3.0990	3.0989	-0.0879	25.35	0.09	-0.050			
0.9865	63136.18	3.0980	3.0980	-0.0875	25.35	0.09	-0.050			
0.9866	63141.77	3.0970	3.0971	-0.0872	25.35	0.09	-0.050			
0.9867	63147.13	3.0960	3.0961	-0.0876	25.35	0.09	-0.050			
0.9868	63152.46	3.0950	3.0952	-0.0865	25.35	0.09	-0.050			
0.9868	63158.00	3.0940	3.0941	-0.0864	25.35	0.09	-0.050			
0.9869	63163.53	3.0930	3.0931	-0.0864	25.35	0.09	-0.050			
0.9870	63169.05	3.0920	3.0919	-0.0863	25.35	0.09	-0.050			
0.9871	63174.57	3.0910	3.0909	-0.0863	25.35	0.09	-0.050			
0.9872	63180.09	3.0900	3.0899	-0.0862	25.36	0.10	-0.050			
0.9873	63185.61	3.0890	3.0890	-0.0861	25.36	0.10	-0.050			
0.9874	63191.60	3.0880	3.0878	-0.0854	25.36	0.10	-0.050			
0.9875	63197.05	3.0870	3.0868	-0.0850	25.36	0.10	-0.050			
0.9875	63202.47	3.0860	3.0860	-0.0846	25.36	0.10	-0.050			
0.9876	63207.88	3.0850	3.0850	-0.0842	25.36	0.10	-0.050			
0.9877	63213.26	3.0840	3.0839	-0.0838	25.36	0.10	-0.050			
0.9878	63218.87	3.0830	3.0829	-0.0839	25.36	0.10	-0.050			
0.9879	63224.22	3.0820	3.0820	-0.0834	25.36	0.10	-0.050			
0.9880	63229.54	3.0810	3.0811	-0.0828	25.36	0.10	-0.050			
0.9880	63234.63	3.0800	3.0801	-0.0827	25.36	0.10	-0.050			
0.9881	63239.91	3.0790	3.0791	-0.0823	25.36	0.10	-0.050			
0.9882	63245.16	3.0780	3.0781	-0.0819	25.36	0.10	-0.050			
0.9883	63250.39	3.0770	3.0771	-0.0815	25.36	0.10	-0.050			
0.9884	63255.73	3.0760	3.0762	-0.0813	25.36	0.10	-0.050			
0.9885	63260.91	3.0750	3.0753	-0.0808	25.36	0.10	-0.050			
0.9885	63266.06	3.0740	3.0740	-0.0803	25.36	0.10	-0.050			
0.9886	63270.72	3.0730	3.0731	-0.0807	25.36	0.10	-0.050			
0.9887	63275.88	3.0720	3.0721	-0.0805	25.36	0.10	-0.050			
0.9888	63281.03	3.0710	3.0710	-0.0803	25.36	0.10	-0.050			
0.9888	63286.16	3.0700	3.0699	-0.0801	25.36	0.10	-0.050			
0.9889	63291.28	3.0690	3.0688	-0.0799	25.36	0.10	-0.050			
0.9890	63295.70	3.0680	3.0678	-0.0789	25.36	0.10	-0.050			
0.9891	63300.75	3.0670	3.0668	-0.0790	25.36	0.10	-0.050			
0.9892	63306.08	3.0660	3.0657	-0.0787	25.36	0.10	-0.050			
0.9892	63311.12	3.0650	3.0650	-0.0787	25.36	0.10	-0.050			
0.9893	63316.16	3.0640	3.0641	-0.0788	25.36	0.10	-0.050			
0.9894	63321.20	3.0630	3.0630	-0.0788	25.36	0.10	-0.050			
0.9895	63326.25	3.0620	3.0620	-0.0788	25.37	0.11	-0.050			
0.9896	63331.29	3.0610	3.0610	-0.0788	25.37	0.11	-0.050			
0.9896	63336.61	3.0600	3.0599	-0.0790	25.37	0.11	-0.050			
0.9897	63341.65	3.0590	3.0587	-0.0789	25.37	0.11	-0.050			
0.9898	63346.70	3.0580	3.0579	-0.0788	25.37	0.11	-0.050			
0.9899	63351.74	3.0570	3.0570	-0.0786	25.37	0.11	-0.050			
0.9899	63356.76	3.0560	3.0560	-0.0785	25.38	0.12	-0.050			
0.9900	63361.78	3.0550	3.0549	-0.0784	25.38	0.12	-0.050			
0.9901	63366.79	3.0540	3.0545	-0.0782	25.38	0.12	-0.050			
0.9902	63371.91	3.0530	3.0531	-0.0782	25.38	0.12	-0.050			
0.9903	63376.99	3.0520	3.0520	-0.0779	25.38	0.12	-0.050			
0.9903	63381.97	3.0510	3.0511	-0.0776	25.38	0.12	-0.050			
0.9904	63386.92	3.0500	3.0500	-0.0773	25.38	0.12	-0.050			
0.9905	63391.87	3.0490	3.0489	-0.0771	25.38	0.12	-0.050			
0.9906	63396.79	3.0480	3.0479	-0.0768	25.38	0.12	-0.050			
0.9907	63401.70	3.0470	3.0468	-0.0765	25.38	0.12	-0.050			
0.9907	63406.56	3.0460	3.0458	-0.0763	25.38	0.12	-0.050			
0.9908	63411.43	3.0450	3.0449	-0.0760	25.38	0.12	-0.050			
0.9909	63416.35	3.0440	3.0441	-0.0756	25.38	0.12	-0.050			
0.9910	63421.18	3.0430	3.0433	-0.0754	25.38	0.12	-0.050			
0.9910	63426.00	3.0420	3.0421	-0.0751	25.38	0.12	-0.050			
0.9911	63430.79	3.0410	3.0410	-0.0748	25.38	0.12	-0.050			
0.9912	63435.57	3.0400	3.0399	-0.0745	25.38	0.12	-0.050			
0.9913	63440.49	3.0390	3.0389	-0.0744	25.38	0.12	-0.050			
0.9913	63445.24	3.0380	3.0379	-0.0740	25.38	0.12	-0.050			
0.9914	63449.74	3.0370	3.0369	-0.0740	25.39	0.13	-0.050			
0.9915	63454.47	3.0360	3.0359	-0.0738	25.39	0.13	-0.050			
0.9915	63459.18	3.0350	3.0349	-0.0735	25.39	0.13	-0.050			
0.9916	63463.88	3.0340	3.0339	-0.0733	25.39	0.13	-0.050			
0.9917	63468.56	3.0330	3.0331	-0.0730	25.39	0.13	-0.050			
0.9918	63473.02	3.0320	3.0323	-0.0725	25.39	0.13	-0.050			
0.9918	63477.65	3.0310	3.0312	-0.0724	25.39	0.13	-0.050			
0.9919	63482.28	3.0300	3.0301	-0.0722	25.39	0.13	-0.050			
0.9920	63487.04	3.0290	3.0289	-0.0718	25.39	0.13	-0.050			
0.9921	63491.63	3.0280	3.0279	-0.0716	25.39	0.13	-0.050			
0.9921	63496.21	3.0270	3.0269	-0.0714	25.39	0.13	-0.050			
0.9922	63500.77	3.0260	3.0259	-0.0712	25.38	0.12	-0.050			
0.9923	63505.32	3.0250	3.0249	-0.0710	25.38	0.12	-0.050			
0.9923	63509.91	3.0240	3.0239	-0.0708	25.38	0.12	-0.050			
0.9924	63514.44	3.0230	3.0229	-0.0706	25.38	0.12	-0.050			
0.9925	63518.95	3.0220	3.0220	-0.0704	25.38	0.12	-0.050			
0.9926	63523.44	3.0210	3.0212	-0.0701	25.38	0.12	-0.050			
0.9926	63527.95	3.0200	3.0202	-0.0698	25.38	0.12	-0.050			
0.9927	63532.41	3.0190	3.0190	-0.0695	25.38	0.12	-0.050			
0.9928	63536.85	3.0180	3.0180	-0.0693	25.38	0.12	-0.050			
0.9928	63541.42	3.0170	3.0170	-0.0693	25.38	0.12	-0.050			
0.9929	63545.84	3.0160	3.0160	-0.0689	25.38	0.12	-0.050			
0.9930	63550.24	3.0150	3.0151	-0.0686	25.38	0.12	-0.050			
0.9930	63554.62	3.0140	3.0140	-0.0683	25.39	0.13	-0.050			
0.9931	63558.98	3.0130	3.0128	-0.0679	25.39	0.13	-0.050			
0.9932	63563.32	3.0120	3.0119	-0.0676	25.39	0.13	-0.050			
0.9932	63567.64	3.0110	3.0110	-0.0673	25.39	0.13	-0.050			
0.9933	63571.93	3.0100	3.0100	-0.0669	25.39	0.13	-0.050			
0.9934	63576.06	3.0090	3.0089	-0.0668	25.39	0.13	-0.050			
0.9934	63580.33	3.0080	3.0082	-0.0666	25.39	0.13	-0.050			
0.9935	63584.59	3.0070	3.0070	-0.0664	25.39	0.13	-0.050			
0.9936	63588.83	3.0060	3.0060	-0.0662	25.39	0.13	-0.050			
0.9936	63593.06	3.0050	3.0050	-0.0660	25.39	0.13	-0.050			
0.9937	63597.28	3.0040	3.0040	-0.0658	25.39	0.13	-0.050			
