Ah_balance (normalized)	Ah_balance (mAh)	Voltage - fit (V)	Voltage -  interpolate (V)	dQ/dV (1/V)	Temperature (°C)	Temperature - diff (°C)	Current (C)	R_DC 0ms (mOhm)	R_DC 50ms (mOhm)	R_DC 50 ms PEC (mOhm)
0.0002	11.59	4.1690	4.1688	-0.3592	24.77	0.00	-0.050			
0.0006	35.81	4.1680	4.1678	-0.4108	24.77	0.00	-0.050			
0.0010	63.68	4.1670	4.1668	-0.4521	24.77	0.00	-0.050			
0.0015	94.45	4.1660	4.1662	-0.4876	24.77	0.00	-0.050			
0.0020	127.38	4.1650	4.1646	-0.5174	24.78	0.01	-0.050			
0.0025	162.88	4.1640	4.1638	-0.5447	24.78	0.01	-0.050			
0.0031	200.45	4.1630	4.1628	-0.5671	24.78	0.01	-0.050			
0.0037	238.87	4.1620	4.1619	-0.5840	24.78	0.01	-0.050			
0.0043	277.38	4.1610	4.1609	-0.5982	24.79	0.02	-0.050			
0.0050	316.96	4.1600	4.1601	-0.6105	24.79	0.02	-0.050			
0.0056	356.65	4.1590	4.1591	-0.6227	24.78	0.01	-0.050			
0.0062	397.58	4.1580	4.1580	-0.6326	24.80	0.03	-0.050			
0.0069	441.24	4.1570	4.1571	-0.6488	24.80	0.03	-0.050			
0.0076	483.51	4.1560	4.1561	-0.6597	24.80	0.03	-0.050			
0.0082	525.94	4.1550	4.1553	-0.6674	24.80	0.03	-0.050			
0.0089	570.70	4.1540	4.1540	-0.6756	24.80	0.03	-0.050			
0.0096	614.36	4.1530	4.1531	-0.6816	24.81	0.04	-0.050			
0.0103	658.39	4.1520	4.1519	-0.6866	24.81	0.04	-0.050			
0.0110	702.57	4.1510	4.1508	-0.6914	24.82	0.05	-0.050			
0.0117	746.76	4.1500	4.1499	-0.6960	24.82	0.05	-0.050			
0.0124	790.87	4.1490	4.1491	-0.7000	24.82	0.05	-0.050			
0.0131	835.95	4.1480	4.1479	-0.7055	24.82	0.05	-0.050			
0.0138	881.69	4.1470	4.1470	-0.7098	24.82	0.05	-0.050			
0.0145	926.98	4.1460	4.1461	-0.7144	24.84	0.07	-0.050			
0.0152	973.08	4.1450	4.1452	-0.7200	24.85	0.08	-0.050			
0.0159	1019.82	4.1440	4.1440	-0.7267	24.85	0.08	-0.050			
0.0167	1067.41	4.1430	4.1430	-0.7319	24.85	0.08	-0.050			
0.0174	1114.92	4.1420	4.1420	-0.7359	24.85	0.08	-0.050			
0.0182	1162.13	4.1410	4.1410	-0.7383	24.85	0.08	-0.050			
0.0189	1209.08	4.1400	4.1399	-0.7411	24.86	0.09	-0.050			
0.0196	1256.91	4.1390	4.1389	-0.7436	24.86	0.09	-0.050			
0.0204	1304.26	4.1380	4.1381	-0.7463	24.86	0.09	-0.050	0.322	0.596	
0.0211	1352.42	4.1370	4.1369	-0.7493	24.87	0.10	-0.050			
0.0219	1400.28	4.1360	4.1359	-0.7515	24.86	0.09	-0.050			
0.0226	1448.82	4.1350	4.1352	-0.7550	24.86	0.09	-0.050			
0.0234	1497.58	4.1340	4.1340	-0.7583	24.86	0.09	-0.050			
0.0242	1546.64	4.1330	4.1330	-0.7615	24.86	0.09	-0.050			
0.0249	1595.77	4.1320	4.1320	-0.7612	24.85	0.08	-0.050			
0.0257	1644.35	4.1310	4.1309	-0.7642	24.84	0.07	-0.050			
0.0265	1692.95	4.1300	4.1300	-0.7665	24.83	0.06	-0.050			
0.0272	1742.02	4.1290	4.1291	-0.7679	24.82	0.05	-0.050			
0.0280	1790.66	4.1280	4.1281	-0.7719	24.81	0.04	-0.050			
0.0288	1840.37	4.1270	4.1270	-0.7742	24.80	0.03	-0.050			
0.0295	1890.28	4.1260	4.1262	-0.7755	24.80	0.03	-0.050			
0.0303	1939.67	4.1250	4.1249	-0.7763	24.79	0.02	-0.050			
0.0311	1990.55	4.1240	4.1241	-0.7779	24.78	0.01	-0.050			
0.0319	2040.42	4.1230	4.1230	-0.7785	24.78	0.01	-0.050			
0.0327	2090.70	4.1220	4.1220	-0.7799	24.78	0.01	-0.050			
0.0334	2140.45	4.1210	4.1209	-0.7808	24.78	0.01	-0.050			
0.0342	2190.30	4.1200	4.1202	-0.7816	24.78	0.01	-0.050			
0.0350	2239.80	4.1190	4.1190	-0.7847	24.77	0.00	-0.050			
0.0358	2290.21	4.1180	4.1179	-0.7866	24.79	0.02	-0.050			
0.0366	2341.03	4.1170	4.1170	-0.7853	24.80	0.03	-0.050			
0.0374	2391.37	4.1160	4.1160	-0.7862	24.81	0.04	-0.050			
0.0382	2442.45	4.1150	4.1149	-0.7889	24.83	0.06	-0.050			
0.0389	2492.44	4.1140	4.1138	-0.7891	24.85	0.08	-0.050			
0.0397	2542.87	4.1130	4.1131	-0.7901	24.86	0.09	-0.050	0.223	0.618	
0.0405	2593.62	4.1120	4.1119	-0.7907	24.86	0.09	-0.050			
0.0413	2643.86	4.1110	4.1110	-0.7918	24.87	0.10	-0.050			
0.0421	2693.62	4.1100	4.1099	-0.7931	24.88	0.11	-0.050			
0.0429	2744.39	4.1090	4.1091	-0.7960	24.88	0.11	-0.050			
0.0437	2795.30	4.1080	4.1081	-0.7975	24.89	0.12	-0.050			
0.0445	2846.42	4.1070	4.1069	-0.7987	24.88	0.11	-0.050			
0.0453	2898.58	4.1060	4.1059	-0.8025	24.89	0.12	-0.050			
0.0461	2950.04	4.1050	4.1050	-0.8045	24.90	0.13	-0.050			
0.0469	3001.50	4.1040	4.1040	-0.8060	24.90	0.13	-0.050			
0.0477	3053.07	4.1030	4.1029	-0.8064	24.90	0.13	-0.050			
0.0485	3104.67	4.1020	4.1019	-0.8106	24.91	0.14	-0.050			
0.0493	3156.34	4.1010	4.1011	-0.8115	24.90	0.13	-0.050			
0.0501	3208.17	4.1000	4.1004	-0.8128	24.91	0.14	-0.050			
0.0509	3260.40	4.0990	4.0991	-0.8140	24.92	0.15	-0.050			
0.0518	3312.57	4.0980	4.0981	-0.8152	24.92	0.15	-0.050			
0.0526	3366.15	4.0970	4.0969	-0.8191	24.91	0.14	-0.050			
0.0534	3418.86	4.0960	4.0959	-0.8203	24.90	0.13	-0.050			
0.0542	3470.86	4.0950	4.0951	-0.8201	24.92	0.15	-0.050			
0.0550	3523.13	4.0940	4.0940	-0.8216	24.93	0.16	-0.050			
0.0559	3576.04	4.0930	4.0930	-0.8222	24.93	0.16	-0.050			
0.0567	3628.81	4.0920	4.0920	-0.8225	24.93	0.16	-0.050			
0.0575	3681.79	4.0910	4.0910	-0.8212	24.94	0.17	-0.050			
0.0583	3733.91	4.0900	4.0900	-0.8212	24.94	0.17	-0.050			
0.0592	3787.25	4.0890	4.0890	-0.8238	24.93	0.16	-0.050			
0.0600	3839.60	4.0880	4.0880	-0.8242	24.91	0.14	-0.050	0.589	0.648	
0.0608	3892.69	4.0870	4.0870	-0.8247	24.90	0.13	-0.050			
0.0616	3945.44	4.0860	4.0860	-0.8239	24.90	0.13	-0.050			
0.0625	3997.15	4.0850	4.0851	-0.8266	24.89	0.12	-0.050			
0.0633	4050.21	4.0840	4.0840	-0.8268	24.88	0.11	-0.050			
0.0641	4103.23	4.0830	4.0834	-0.8263	24.88	0.11	-0.050			
0.0649	4156.20	4.0820	4.0819	-0.8266	24.87	0.10	-0.050			
0.0658	4209.36	4.0810	4.0808	-0.8272	24.86	0.09	-0.050			
0.0666	4262.60	4.0800	4.0800	-0.8286	24.86	0.09	-0.050			
0.0674	4315.35	4.0790	4.0790	-0.8295	24.85	0.08	-0.050			
0.0683	4368.31	4.0780	4.0781	-0.8311	24.84	0.07	-0.050			
0.0691	4421.29	4.0770	4.0770	-0.8314	24.83	0.06	-0.050			
0.0699	4473.98	4.0760	4.0760	-0.8344	24.82	0.05	-0.050			
0.0707	4527.72	4.0750	4.0751	-0.8346	24.82	0.05	-0.050			
0.0716	4581.42	4.0740	4.0741	-0.8354	24.82	0.05	-0.050			
0.0724	4635.13	4.0730	4.0730	-0.8362	24.84	0.07	-0.050			
0.0733	4689.17	4.0720	4.0719	-0.8380	24.85	0.08	-0.050			
0.0741	4742.93	4.0710	4.0710	-0.8379	24.85	0.08	-0.050			
0.0749	4796.39	4.0700	4.0700	-0.8369	24.85	0.08	-0.050			
0.0758	4849.95	4.0690	4.0690	-0.8375	24.85	0.08	-0.050			
0.0766	4903.36	4.0680	4.0681	-0.8393	24.86	0.09	-0.050			
0.0775	4957.22	4.0670	4.0670	-0.8409	24.86	0.09	-0.050			
0.0783	5011.07	4.0660	4.0662	-0.8414	24.86	0.09	-0.050			
0.0791	5064.61	4.0650	4.0650	-0.8404	24.86	0.09	-0.050			
0.0800	5118.93	4.0640	4.0639	-0.8417	24.87	0.10	-0.050	0.457	0.620	
0.0808	5173.38	4.0630	4.0630	-0.8443	24.87	0.10	-0.050			
0.0817	5227.29	4.0620	4.0620	-0.8436	24.86	0.09	-0.050			
0.0825	5281.37	4.0610	4.0609	-0.8438	24.87	0.10	-0.050			
0.0834	5334.64	4.0600	4.0599	-0.8459	24.87	0.10	-0.050			
0.0842	5388.16	4.0590	4.0590	-0.8458	24.86	0.09	-0.050			
0.0850	5442.41	4.0580	4.0582	-0.8469	24.87	0.10	-0.050			
0.0859	5496.61	4.0570	4.0569	-0.8473	24.87	0.10	-0.050			
0.0867	5551.25	4.0560	4.0560	-0.8470	24.88	0.11	-0.050			
0.0876	5606.03	4.0550	4.0549	-0.8496	24.87	0.10	-0.050			
0.0885	5660.92	4.0540	4.0539	-0.8506	24.87	0.10	-0.050			
0.0893	5715.00	4.0530	4.0530	-0.8511	24.86	0.09	-0.050			
0.0901	5769.29	4.0520	4.0519	-0.8522	24.86	0.09	-0.050			
0.0910	5824.13	4.0510	4.0510	-0.8522	24.86	0.09	-0.050			
0.0919	5878.44	4.0500	4.0502	-0.8529	24.85	0.08	-0.050			
0.0927	5932.94	4.0490	4.0491	-0.8529	24.84	0.07	-0.050			
0.0936	5987.27	4.0480	4.0481	-0.8525	24.82	0.05	-0.050			
0.0944	6042.68	4.0470	4.0470	-0.8559	24.81	0.04	-0.050			
0.0953	6097.27	4.0460	4.0460	-0.8553	24.79	0.02	-0.050			
0.0961	6152.12	4.0450	4.0450	-0.8565	24.78	0.01	-0.050			
0.0970	6206.48	4.0440	4.0438	-0.8587	24.76	-0.01	-0.050			
0.0978	6261.42	4.0430	4.0431	-0.8592	24.76	-0.01	-0.050			
0.0987	6316.13	4.0420	4.0420	-0.8602	24.75	-0.02	-0.050			
0.0996	6371.47	4.0410	4.0410	-0.8593	24.75	-0.02	-0.050			
0.1004	6425.89	4.0400	4.0401	-0.8594	24.73	-0.04	-0.050	0.621	0.719	
0.1013	6481.39	4.0390	4.0389	-0.8623	24.73	-0.04	-0.050			
0.1021	6537.05	4.0380	4.0380	-0.8627	24.72	-0.05	-0.050			
0.1030	6592.44	4.0370	4.0370	-0.8643	24.71	-0.06	-0.050			
0.1039	6647.33	4.0360	4.0360	-0.8669	24.72	-0.05	-0.050			
0.1047	6702.77	4.0350	4.0350	-0.8683	24.71	-0.06	-0.050			
0.1056	6758.21	4.0340	4.0341	-0.8686	24.72	-0.05	-0.050			
0.1065	6814.21	4.0330	4.0330	-0.8679	24.73	-0.04	-0.050			
0.1073	6869.93	4.0320	4.0320	-0.8693	24.75	-0.02	-0.050			
0.1082	6925.96	4.0310	4.0308	-0.8704	24.75	-0.02	-0.050			
0.1091	6981.39	4.0300	4.0301	-0.8717	24.76	-0.01	-0.050			
0.1100	7037.12	4.0290	4.0290	-0.8718	24.76	-0.01	-0.050			
0.1108	7091.95	4.0280	4.0279	-0.8767	24.77	-0.00	-0.050			
0.1117	7148.47	4.0270	4.0271	-0.8770	24.78	0.01	-0.050			
0.1126	7204.84	4.0260	4.0260	-0.8774	24.78	0.01	-0.050			
0.1135	7261.27	4.0250	4.0249	-0.8785	24.80	0.03	-0.050			
0.1143	7317.20	4.0240	4.0240	-0.8786	24.80	0.03	-0.050			
0.1152	7374.02	4.0230	4.0228	-0.8806	24.80	0.03	-0.050			
0.1161	7430.58	4.0220	4.0220	-0.8821	24.80	0.03	-0.050			
0.1170	7487.02	4.0210	4.0208	-0.8833	24.81	0.04	-0.050			
0.1179	7543.23	4.0200	4.0201	-0.8846	24.82	0.05	-0.050			
0.1188	7600.04	4.0190	4.0189	-0.8851	24.82	0.05	-0.050			
0.1196	7657.00	4.0180	4.0180	-0.8867	24.84	0.07	-0.050			
0.1205	7713.51	4.0170	4.0170	-0.8864	24.85	0.08	-0.050	0.351	0.482	
0.1214	7769.84	4.0160	4.0160	-0.8878	24.85	0.08	-0.050			
0.1223	7827.07	4.0150	4.0150	-0.8899	24.85	0.08	-0.050			
0.1232	7884.38	4.0140	4.0139	-0.8916	24.86	0.09	-0.050			
0.1241	7942.01	4.0130	4.0129	-0.8924	24.86	0.09	-0.050			
0.1250	7998.17	4.0120	4.0121	-0.8957	24.86	0.09	-0.050			
0.1259	8055.66	4.0110	4.0109	-0.8953	24.86	0.09	-0.050			
0.1268	8112.91	4.0100	4.0102	-0.8947	24.86	0.09	-0.050			
0.1277	8170.62	4.0090	4.0090	-0.8938	24.86	0.09	-0.050			
0.1286	8227.71	4.0080	4.0079	-0.8932	24.86	0.09	-0.050			
0.1295	8284.91	4.0070	4.0069	-0.8936	24.84	0.07	-0.050			
0.1304	8343.57	4.0060	4.0060	-0.8971	24.82	0.05	-0.050			
0.1313	8400.40	4.0050	4.0049	-0.9001	24.82	0.05	-0.050			
0.1322	8458.08	4.0040	4.0039	-0.8994	24.80	0.03	-0.050			
0.1331	8515.69	4.0030	4.0029	-0.8989	24.80	0.03	-0.050			
0.1340	8573.15	4.0020	4.0024	-0.8996	24.78	0.01	-0.050			
0.1349	8630.45	4.0010	4.0010	-0.9000	24.79	0.02	-0.050			
0.1357	8687.72	4.0000	3.9999	-0.9006	24.77	0.00	-0.050			
0.1367	8745.84	3.9990	3.9990	-0.9017	24.76	-0.01	-0.050			
0.1375	8803.08	3.9980	3.9979	-0.9038	24.76	-0.01	-0.050			
0.1384	8860.13	3.9970	3.9970	-0.9069	24.76	-0.01	-0.050			
0.1393	8917.84	3.9960	3.9960	-0.9076	24.76	-0.01	-0.050			
0.1403	8976.11	3.9950	3.9950	-0.9093	24.76	-0.01	-0.050	0.400	0.701	
0.1412	9034.24	3.9940	3.9939	-0.9110	24.78	0.01	-0.050			
0.1421	9092.97	3.9930	3.9930	-0.9120	24.78	0.01	-0.050			
0.1430	9151.15	3.9920	3.9919	-0.9120	24.80	0.03	-0.050			
0.1439	9210.88	3.9910	3.9910	-0.9162	24.81	0.04	-0.050			
0.1448	9270.19	3.9900	3.9900	-0.9176	24.83	0.06	-0.050			
0.1458	9328.76	3.9890	3.9889	-0.9189	24.85	0.08	-0.050			
0.1467	9388.08	3.9880	3.9881	-0.9182	24.86	0.09	-0.050			
0.1476	9446.77	3.9870	3.9873	-0.9169	24.88	0.11	-0.050			
0.1485	9505.59	3.9860	3.9859	-0.9174	24.89	0.12	-0.050			
0.1494	9564.01	3.9850	3.9849	-0.9169	24.90	0.13	-0.050			
0.1503	9622.39	3.9840	3.9840	-0.9173	24.90	0.13	-0.050			
0.1513	9681.76	3.9830	3.9829	-0.9201	24.92	0.15	-0.050			
0.1522	9739.73	3.9820	3.9820	-0.9222	24.92	0.15	-0.050			
0.1531	9798.25	3.9810	3.9810	-0.9228	24.92	0.15	-0.050			
0.1540	9857.69	3.9800	3.9802	-0.9238	24.92	0.15	-0.050			
0.1549	9916.66	3.9790	3.9792	-0.9236	24.93	0.16	-0.050			
0.1559	9975.32	3.9780	3.9779	-0.9231	24.93	0.16	-0.050			
0.1568	10034.28	3.9770	3.9770	-0.9245	24.93	0.16	-0.050			
0.1577	10093.71	3.9760	3.9759	-0.9276	24.93	0.16	-0.050			
0.1586	10153.06	3.9750	3.9749	-0.9316	24.93	0.16	-0.050			
0.1596	10212.80	3.9740	3.9739	-0.9327	24.93	0.16	-0.050			
0.1605	10272.87	3.9730	3.9730	-0.9334	24.93	0.16	-0.050	0.245	0.607	
0.1615	10333.06	3.9720	3.9722	-0.9347	24.91	0.14	-0.050			
0.1624	10393.16	3.9710	3.9711	-0.9353	24.89	0.12	-0.050			
0.1633	10453.58	3.9700	3.9699	-0.9356	24.88	0.11	-0.050			
0.1643	10513.78	3.9690	3.9690	-0.9350	24.87	0.10	-0.050			
0.1652	10574.31	3.9680	3.9679	-0.9370	24.86	0.09	-0.050			
0.1662	10633.89	3.9670	3.9670	-0.9391	24.85	0.08	-0.050			
0.1671	10693.52	3.9660	3.9661	-0.9386	24.85	0.08	-0.050			
0.1680	10753.63	3.9650	3.9650	-0.9375	24.82	0.05	-0.050			
0.1690	10813.45	3.9640	3.9641	-0.9377	24.82	0.05	-0.050			
0.1699	10872.76	3.9630	3.9631	-0.9385	24.82	0.05	-0.050			
0.1708	10932.88	3.9620	3.9619	-0.9391	24.81	0.04	-0.050			
0.1718	10993.13	3.9610	3.9610	-0.9426	24.80	0.03	-0.050			
0.1727	11053.74	3.9600	3.9599	-0.9434	24.80	0.03	-0.050			
0.1737	11113.79	3.9590	3.9589	-0.9474	24.82	0.05	-0.050			
0.1746	11174.53	3.9580	3.9579	-0.9458	24.81	0.04	-0.050			
0.1755	11234.86	3.9570	3.9574	-0.9458	24.83	0.06	-0.050			
0.1765	11295.73	3.9560	3.9560	-0.9473	24.85	0.08	-0.050			
0.1774	11356.35	3.9550	3.9551	-0.9482	24.86	0.09	-0.050			
0.1784	11417.55	3.9540	3.9541	-0.9468	24.87	0.10	-0.050			
0.1794	11479.31	3.9530	3.9530	-0.9494	24.88	0.11	-0.050			
0.1803	11539.64	3.9520	3.9520	-0.9516	24.88	0.11	-0.050	0.442	0.494	
0.1813	11600.54	3.9510	3.9510	-0.9530	24.88	0.11	-0.050			
0.1822	11661.70	3.9500	3.9499	-0.9529	24.90	0.13	-0.050			
0.1832	11722.55	3.9490	3.9490	-0.9530	24.90	0.13	-0.050			
0.1841	11783.24	3.9480	3.9480	-0.9519	24.90	0.13	-0.050			
0.1851	11843.84	3.9470	3.9468	-0.9511	24.91	0.14	-0.050			
0.1860	11905.58	3.9460	3.9462	-0.9541	24.93	0.16	-0.050			
0.1870	11965.90	3.9450	3.9449	-0.9567	24.93	0.16	-0.050			
0.1879	12027.44	3.9440	3.9439	-0.9569	24.93	0.16	-0.050			
0.1889	12088.14	3.9430	3.9430	-0.9558	24.93	0.16	-0.050			
0.1898	12149.57	3.9420	3.9420	-0.9572	24.93	0.16	-0.050			
0.1908	12211.01	3.9410	3.9411	-0.9556	24.93	0.16	-0.050			
0.1918	12272.13	3.9400	3.9400	-0.9563	24.93	0.16	-0.050			
0.1927	12333.38	3.9390	3.9391	-0.9567	24.93	0.16	-0.050			
0.1937	12395.46	3.9380	3.9379	-0.9617	24.93	0.16	-0.050			
0.1946	12456.85	3.9370	3.9369	-0.9620	24.92	0.15	-0.050			
0.1956	12517.98	3.9360	3.9361	-0.9634	24.92	0.15	-0.050			
0.1966	12580.10	3.9350	3.9354	-0.9649	24.90	0.13	-0.050			
0.1975	12641.96	3.9340	3.9340	-0.9645	24.89	0.12	-0.050			
0.1985	12703.09	3.9330	3.9331	-0.9642	24.87	0.10	-0.050			
0.1994	12764.44	3.9320	3.9318	-0.9633	24.86	0.09	-0.050			
0.2004	12826.05	3.9310	3.9309	-0.9692	24.85	0.08	-0.050			
0.2014	12888.33	3.9300	3.9300	-0.9704	24.82	0.05	-0.050			
0.2024	12950.59	3.9290	3.9290	-0.9703	24.82	0.05	-0.050			
0.2033	13013.06	3.9280	3.9282	-0.9717	24.80	0.03	-0.050			
0.2043	13075.36	3.9270	3.9270	-0.9712	24.78	0.01	-0.050			
0.2053	13137.26	3.9260	3.9260	-0.9707	24.77	-0.00	-0.050			
0.2062	13199.66	3.9250	3.9250	-0.9698	24.76	-0.01	-0.050			
0.2072	13262.85	3.9240	3.9239	-0.9733	24.75	-0.02	-0.050			
0.2082	13325.06	3.9230	3.9231	-0.9741	24.75	-0.02	-0.050			
0.2092	13387.55	3.9220	3.9220	-0.9746	24.76	-0.01	-0.050			
0.2102	13450.01	3.9210	3.9212	-0.9750	24.76	-0.01	-0.050			
0.2111	13512.37	3.9200	3.9200	-0.9739	24.76	-0.01	-0.050			
0.2121	13573.85	3.9190	3.9189	-0.9748	24.76	-0.01	-0.050			
0.2131	13635.62	3.9180	3.9180	-0.9747	24.76	-0.01	-0.050			
0.2140	13698.09	3.9170	3.9170	-0.9779	24.77	-0.00	-0.050			
0.2150	13760.30	3.9160	3.9161	-0.9792	24.76	-0.01	-0.050			
0.2160	13823.83	3.9150	3.9149	-0.9804	24.77	0.00	-0.050			
0.2170	13886.66	3.9140	3.9139	-0.9811	24.76	-0.01	-0.050			
0.2180	13949.30	3.9130	3.9130	-0.9802	24.78	0.01	-0.050			
0.2189	14011.81	3.9120	3.9121	-0.9816	24.78	0.01	-0.050			
0.2199	14074.30	3.9110	3.9110	-0.9813	24.78	0.01	-0.050	0.326	0.496	
0.2209	14138.18	3.9100	3.9098	-0.9846	24.80	0.03	-0.050			
0.2219	14201.23	3.9090	3.9089	-0.9887	24.80	0.03	-0.050			
0.2229	14264.80	3.9080	3.9081	-0.9887	24.80	0.03	-0.050			
0.2239	14328.49	3.9070	3.9069	-0.9874	24.80	0.03	-0.050			
0.2249	14391.94	3.9060	3.9060	-0.9882	24.82	0.05	-0.050			
0.2259	14455.32	3.9050	3.9048	-0.9887	24.83	0.06	-0.050			
0.2268	14518.04	3.9040	3.9040	-0.9893	24.84	0.07	-0.050			
0.2278	14580.46	3.9030	3.9029	-0.9915	24.83	0.06	-0.050			
0.2288	14644.82	3.9020	3.9020	-0.9914	24.82	0.05	-0.050			
0.2298	14708.47	3.9010	3.9010	-0.9900	24.82	0.05	-0.050			
0.2308	14772.01	3.9000	3.8999	-0.9887	24.82	0.05	-0.050			
0.2318	14834.95	3.8990	3.8990	-0.9867	24.80	0.03	-0.050			
0.2328	14898.36	3.8980	3.8980	-0.9877	24.79	0.02	-0.050			
0.2338	14961.46	3.8970	3.8968	-0.9875	24.79	0.02	-0.050			
0.2348	15024.19	3.8960	3.8960	-0.9908	24.78	0.01	-0.050			
0.2358	15088.18	3.8950	3.8950	-0.9931	24.78	0.01	-0.050			
0.2367	15150.98	3.8940	3.8941	-0.9934	24.76	-0.01	-0.050			
0.2377	15214.21	3.8930	3.8931	-0.9947	24.76	-0.01	-0.050			
0.2387	15277.58	3.8920	3.8919	-0.9961	24.75	-0.02	-0.050			
0.2397	15341.18	3.8910	3.8910	-0.9974	24.75	-0.02	-0.050	0.432	0.553	
0.2407	15404.93	3.8900	3.8899	-0.9995	24.75	-0.02	-0.050			
0.2417	15468.35	3.8890	3.8890	-1.0013	24.75	-0.02	-0.050			
0.2427	15533.50	3.8880	3.8879	-1.0040	24.77	-0.00	-0.050			
0.2437	15598.07	3.8870	3.8869	-1.0055	24.78	0.01	-0.050			
0.2447	15662.16	3.8860	3.8860	-1.0054	24.80	0.03	-0.050			
0.2457	15726.67	3.8850	3.8850	-1.0064	24.81	0.04	-0.050			
0.2467	15791.55	3.8840	3.8841	-1.0066	24.83	0.06	-0.050			
0.2478	15856.90	3.8830	3.8830	-1.0078	24.84	0.07	-0.050			
0.2488	15921.70	3.8820	3.8820	-1.0090	24.85	0.08	-0.050			
0.2498	15987.11	3.8810	3.8811	-1.0135	24.85	0.08	-0.050			
0.2508	16051.99	3.8800	3.8800	-1.0116	24.86	0.09	-0.050			
0.2518	16116.64	3.8790	3.8790	-1.0109	24.87	0.10	-0.050			
0.2528	16180.98	3.8780	3.8780	-1.0095	24.88	0.11	-0.050			
0.2538	16245.38	3.8770	3.8770	-1.0092	24.88	0.11	-0.050			
0.2548	16309.00	3.8760	3.8761	-1.0089	24.88	0.11	-0.050			
0.2558	16372.91	3.8750	3.8751	-1.0104	24.90	0.13	-0.050			
0.2568	16438.04	3.8740	3.8739	-1.0120	24.90	0.13	-0.050			
0.2579	16503.07	3.8730	3.8730	-1.0115	24.90	0.13	-0.050			
0.2589	16568.16	3.8720	3.8718	-1.0108	24.92	0.15	-0.050			
0.2599	16633.31	3.8710	3.8709	-1.0097	24.93	0.16	-0.050	0.518	0.400	
0.2609	16698.62	3.8700	3.8699	-1.0092	24.93	0.16	-0.050			
0.2619	16763.10	3.8690	3.8690	-1.0084	24.93	0.16	-0.050			
0.2629	16826.58	3.8680	3.8680	-1.0115	24.93	0.16	-0.050			
0.2639	16891.92	3.8670	3.8670	-1.0119	24.93	0.16	-0.050			
0.2650	16956.83	3.8660	3.8661	-1.0120	24.93	0.16	-0.050			
0.2660	17021.44	3.8650	3.8652	-1.0129	24.91	0.14	-0.050			
0.2670	17086.16	3.8640	3.8639	-1.0139	24.88	0.11	-0.050			
0.2680	17150.80	3.8630	3.8633	-1.0138	24.88	0.11	-0.050			
0.2690	17215.07	3.8620	3.8620	-1.0150	24.86	0.09	-0.050			
0.2700	17279.48	3.8610	3.8610	-1.0170	24.85	0.08	-0.050			
0.2710	17344.87	3.8600	3.8600	-1.0176	24.83	0.06	-0.050			
0.2720	17410.76	3.8590	3.8589	-1.0182	24.80	0.03	-0.050			
0.2731	17475.75	3.8580	3.8584	-1.0187	24.80	0.03	-0.050			
0.2741	17540.59	3.8570	3.8570	-1.0197	24.79	0.02	-0.050			
0.2751	17605.76	3.8560	3.8559	-1.0210	24.78	0.01	-0.050			
0.2761	17671.56	3.8550	3.8551	-1.0228	24.78	0.01	-0.050			
0.2771	17737.56	3.8540	3.8540	-1.0273	24.80	0.03	-0.050			
0.2782	17803.90	3.8530	3.8530	-1.0296	24.81	0.04	-0.050			
0.2792	17870.04	3.8520	3.8522	-1.0308	24.83	0.06	-0.050			
0.2802	17935.85	3.8510	3.8513	-1.0323	24.85	0.08	-0.050	0.168	0.446	
0.2813	18001.59	3.8500	3.8499	-1.0327	24.86	0.09	-0.050			
0.2823	18067.52	3.8490	3.8491	-1.0326	24.87	0.10	-0.050			
0.2833	18132.62	3.8480	3.8479	-1.0336	24.88	0.11	-0.050			
0.2844	18199.64	3.8470	3.8470	-1.0336	24.88	0.11	-0.050			
0.2854	18266.72	3.8460	3.8461	-1.0354	24.89	0.12	-0.050			
0.2865	18332.84	3.8450	3.8449	-1.0350	24.90	0.13	-0.050			
0.2875	18399.18	3.8440	3.8438	-1.0351	24.90	0.13	-0.050			
0.2885	18465.64	3.8430	3.8430	-1.0348	24.92	0.15	-0.050			
0.2896	18531.91	3.8420	3.8420	-1.0344	24.92	0.15	-0.050			
0.2906	18597.62	3.8410	3.8411	-1.0380	24.93	0.16	-0.050			
0.2916	18665.32	3.8400	3.8401	-1.0422	24.93	0.16	-0.050			
0.2927	18731.67	3.8390	3.8390	-1.0413	24.93	0.16	-0.050			
0.2937	18798.05	3.8380	3.8379	-1.0419	24.94	0.17	-0.050			
0.2948	18864.11	3.8370	3.8370	-1.0421	24.94	0.17	-0.050			
0.2958	18930.77	3.8360	3.8359	-1.0426	24.94	0.17	-0.050			
0.2968	18997.33	3.8350	3.8350	-1.0442	24.94	0.17	-0.050			
0.2979	19063.85	3.8340	3.8340	-1.0439	24.93	0.16	-0.050			
0.2989	19131.12	3.8330	3.8329	-1.0461	24.93	0.16	-0.050			
0.3000	19198.47	3.8320	3.8321	-1.0459	24.92	0.15	-0.050			
0.3010	19265.46	3.8310	3.8313	-1.0461	24.90	0.13	-0.050			
0.3021	19332.90	3.8300	3.8299	-1.0470	24.88	0.11	-0.050			
0.3031	19400.06	3.8290	3.8289	-1.0470	24.88	0.11	-0.050			
0.3042	19466.43	3.8280	3.8279	-1.0511	24.87	0.10	-0.050			
0.3052	19534.59	3.8270	3.8270	-1.0539	24.85	0.08	-0.050			
0.3063	19601.65	3.8260	3.8258	-1.0559	24.85	0.08	-0.050			
0.3073	19668.74	3.8250	3.8250	-1.0568	24.85	0.08	-0.050			
0.3084	19736.31	3.8240	3.8239	-1.0580	24.84	0.07	-0.050			
0.3094	19803.80	3.8230	3.8229	-1.0608	24.82	0.05	-0.050			
0.3105	19871.05	3.8220	3.8219	-1.0615	24.84	0.07	-0.050			
0.3115	19938.88	3.8210	3.8210	-1.0621	24.85	0.08	-0.050			
0.3126	20007.64	3.8200	3.8199	-1.0638	24.85	0.08	-0.050			
0.3137	20077.05	3.8190	3.8189	-1.0638	24.86	0.09	-0.050			
0.3148	20145.46	3.8180	3.8183	-1.0637	24.86	0.09	-0.050			
0.3158	20213.93	3.8170	3.8170	-1.0642	24.86	0.09	-0.050			
0.3169	20282.26	3.8160	3.8158	-1.0646	24.86	0.09	-0.050			
0.3180	20350.07	3.8150	3.8150	-1.0671	24.85	0.08	-0.050			
0.3190	20418.68	3.8140	3.8142	-1.0689	24.86	0.09	-0.050			
0.3201	20487.53	3.8130	3.8130	-1.0688	24.85	0.08	-0.050	0.467	0.347	
0.3212	20556.00	3.8120	3.8121	-1.0694	24.84	0.07	-0.050			
0.3222	20623.60	3.8110	3.8112	-1.0701	24.82	0.05	-0.050			
0.3233	20692.02	3.8100	3.8099	-1.0706	24.82	0.05	-0.050			
0.3244	20759.60	3.8090	3.8088	-1.0702	24.82	0.05	-0.050			
0.3254	20826.98	3.8080	3.8080	-1.0716	24.80	0.03	-0.050			
0.3265	20896.63	3.8070	3.8070	-1.0720	24.80	0.03	-0.050			
0.3276	20965.33	3.8060	3.8059	-1.0725	24.79	0.02	-0.050			
0.3287	21034.32	3.8050	3.8051	-1.0729	24.78	0.01	-0.050			
0.3297	21103.07	3.8040	3.8038	-1.0735	24.78	0.01	-0.050			
0.3308	21172.05	3.8030	3.8030	-1.0737	24.78	0.01	-0.050			
0.3319	21240.55	3.8020	3.8019	-1.0786	24.78	0.01	-0.050			
0.3330	21310.22	3.8010	3.8011	-1.0804	24.78	0.01	-0.050			
0.3341	21380.84	3.8000	3.8000	-1.0835	24.79	0.02	-0.050			
0.3352	21449.63	3.7990	3.7990	-1.0842	24.78	0.01	-0.050			
0.3362	21518.78	3.7980	3.7979	-1.0837	24.78	0.01	-0.050			
0.3373	21587.89	3.7970	3.7970	-1.0839	24.78	0.01	-0.050			
0.3384	21656.91	3.7960	3.7958	-1.0843	24.77	0.00	-0.050			
0.3395	21726.75	3.7950	3.7949	-1.0821	24.76	-0.01	-0.050			
0.3406	21796.57	3.7940	3.7940	-1.0831	24.76	-0.01	-0.050	0.621	0.726	
0.3417	21866.16	3.7930	3.7930	-1.0800	24.75	-0.02	-0.050			
0.3427	21935.39	3.7920	3.7925	-1.0792	24.75	-0.02	-0.050			
0.3438	22004.23	3.7910	3.7908	-1.0774	24.74	-0.03	-0.050			
0.3449	22073.57	3.7900	3.7900	-1.0769	24.75	-0.02	-0.050			
0.3460	22141.81	3.7890	3.7892	-1.0773	24.76	-0.01	-0.050			
0.3470	22210.74	3.7880	3.7881	-1.0770	24.78	0.01	-0.050			
0.3482	22281.72	3.7870	3.7869	-1.0793	24.78	0.01	-0.050			
0.3492	22351.03	3.7860	3.7860	-1.0747	24.81	0.04	-0.050			
0.3503	22419.79	3.7850	3.7849	-1.0709	24.82	0.05	-0.050			
0.3514	22488.23	3.7840	3.7839	-1.0666	24.85	0.08	-0.050			
0.3524	22556.01	3.7830	3.7828	-1.0633	24.85	0.08	-0.050			
0.3535	22623.52	3.7820	3.7821	-1.0593	24.85	0.08	-0.050			
0.3546	22692.24	3.7810	3.7809	-1.0564	24.86	0.09	-0.050			
0.3556	22760.40	3.7800	3.7798	-1.0513	24.86	0.09	-0.050			
0.3567	22827.96	3.7790	3.7794	-1.0442	24.87	0.10	-0.050			
0.3577	22895.57	3.7780	3.7781	-1.0394	24.88	0.11	-0.050			
0.3588	22962.34	3.7770	3.7768	-1.0345	24.88	0.11	-0.050			
0.3598	23028.64	3.7760	3.7760	-1.0283	24.89	0.12	-0.050	-0.030	0.536	
0.3609	23094.72	3.7750	3.7750	-1.0248	24.90	0.13	-0.050			
0.3619	23161.35	3.7740	3.7737	-1.0168	24.91	0.14	-0.050			
0.3629	23225.83	3.7730	3.7731	-1.0074	24.90	0.13	-0.050			
0.3639	23289.75	3.7720	3.7725	-0.9976	24.92	0.15	-0.050			
0.3649	23353.68	3.7710	3.7710	-0.9885	24.91	0.14	-0.050			
0.3659	23416.44	3.7700	3.7699	-0.9785	24.92	0.15	-0.050			
0.3669	23478.62	3.7690	3.7690	-0.9674	24.92	0.15	-0.050			
0.3678	23540.83	3.7680	3.7680	-0.9596	24.90	0.13	-0.050			
0.3688	23602.14	3.7670	3.7669	-0.9512	24.90	0.13	-0.050			
0.3697	23663.30	3.7660	3.7660	-0.9415	24.90	0.13	-0.050			
0.3707	23723.41	3.7650	3.7653	-0.9302	24.88	0.11	-0.050			
0.3716	23782.68	3.7640	3.7640	-0.9167	24.87	0.10	-0.050			
0.3725	23841.17	3.7630	3.7629	-0.9036	24.86	0.09	-0.050			
0.3734	23898.99	3.7620	3.7621	-0.8928	24.86	0.09	-0.050			
0.3743	23957.43	3.7610	3.7609	-0.8849	24.85	0.08	-0.050			
0.3752	24013.29	3.7600	3.7600	-0.8722	24.84	0.07	-0.050			
0.3761	24067.51	3.7590	3.7590	-0.8622	24.82	0.05	-0.050			
0.3769	24121.63	3.7580	3.7580	-0.8501	24.82	0.05	-0.050			
0.3777	24175.36	3.7570	3.7575	-0.8388	24.81	0.04	-0.050			
0.3786	24228.03	3.7560	3.7559	-0.8279	24.81	0.04	-0.050			
0.3794	24280.19	3.7550	3.7550	-0.8169	24.82	0.05	-0.050			
0.3802	24332.99	3.7540	3.7539	-0.8102	24.82	0.05	-0.050	0.463	0.585	
0.3810	24384.35	3.7530	3.7530	-0.8006	24.82	0.05	-0.050			
0.3818	24434.53	3.7520	3.7520	-0.7897	24.82	0.05	-0.050			
0.3826	24484.73	3.7510	3.7509	-0.7810	24.83	0.06	-0.050			
0.3833	24534.36	3.7500	3.7501	-0.7723	24.84	0.07	-0.050			
0.3841	24583.19	3.7490	3.7490	-0.7636	24.85	0.08	-0.050			
0.3849	24631.45	3.7480	3.7484	-0.7550	24.84	0.07	-0.050			
0.3856	24679.31	3.7470	3.7469	-0.7472	24.85	0.08	-0.050			
0.3864	24727.70	3.7460	3.7460	-0.7433	24.85	0.08	-0.050			
0.3871	24774.73	3.7450	3.7450	-0.7363	24.86	0.09	-0.050			
0.3878	24821.37	3.7440	3.7441	-0.7305	24.86	0.09	-0.050			
0.3886	24867.25	3.7430	3.7431	-0.7239	24.86	0.09	-0.050			
0.3893	24912.83	3.7420	3.7421	-0.7185	24.87	0.10	-0.050			
0.3900	24957.84	3.7410	3.7409	-0.7130	24.87	0.10	-0.050			
0.3907	25002.73	3.7400	3.7400	-0.7081	24.87	0.10	-0.050			
0.3913	25045.80	3.7390	3.7390	-0.7071	24.88	0.11	-0.050			
0.3920	25090.31	3.7380	3.7378	-0.7047	24.88	0.11	-0.050			
0.3927	25135.02	3.7370	3.7370	-0.7076	24.89	0.12	-0.050			
0.3934	25179.95	3.7360	3.7360	-0.7077	24.90	0.13	-0.050			
0.3941	25224.57	3.7350	3.7351	-0.7088	24.90	0.13	-0.050			
0.3948	25269.08	3.7340	3.7341	-0.7100	24.90	0.13	-0.050			
0.3955	25314.25	3.7330	3.7330	-0.7130	24.90	0.13	-0.050			
0.3962	25359.61	3.7320	3.7319	-0.7164	24.91	0.14	-0.050			
0.3970	25405.17	3.7310	3.7308	-0.7208	24.93	0.16	-0.050			
0.3977	25450.55	3.7300	3.7298	-0.7276	24.94	0.17	-0.050			
0.3984	25497.29	3.7290	3.7290	-0.7309	24.94	0.17	-0.050			
0.3991	25544.12	3.7280	3.7280	-0.7376	24.94	0.17	-0.050			
0.3999	25592.00	3.7270	3.7270	-0.7456	24.94	0.17	-0.050			
0.4006	25638.93	3.7260	3.7259	-0.7516	24.94	0.17	-0.050			
0.4014	25686.83	3.7250	3.7250	-0.7590	24.94	0.17	-0.050			
0.4021	25734.93	3.7240	3.7240	-0.7685	24.94	0.17	-0.050			
0.4029	25783.57	3.7230	3.7229	-0.7788	24.94	0.17	-0.050			
0.4036	25832.02	3.7220	3.7221	-0.7934	24.94	0.17	-0.050			
0.4044	25882.43	3.7210	3.7209	-0.8060	24.93	0.16	-0.050			
0.4052	25933.43	3.7200	3.7200	-0.8201	24.92	0.15	-0.050			
0.4060	25984.73	3.7190	3.7190	-0.8315	24.90	0.13	-0.050			
0.4068	26037.60	3.7180	3.7180	-0.8482	24.90	0.13	-0.050			
0.4077	26091.67	3.7170	3.7169	-0.8679	24.90	0.13	-0.050			
0.4085	26147.01	3.7160	3.7159	-0.8856	24.89	0.12	-0.050			
0.4094	26203.84	3.7150	3.7149	-0.9078	24.87	0.10	-0.050			
0.4104	26262.59	3.7140	3.7140	-0.9247	24.86	0.09	-0.050			
0.4113	26323.14	3.7130	3.7129	-0.9436	24.86	0.09	-0.050			
0.4122	26383.51	3.7120	3.7120	-0.9644	24.85	0.08	-0.050			
0.4132	26445.46	3.7110	3.7110	-0.9865	24.86	0.09	-0.050			
0.4142	26508.59	3.7100	3.7101	-1.0098	24.85	0.08	-0.050			
0.4152	26572.76	3.7090	3.7089	-1.0385	24.86	0.09	-0.050			
0.4163	26640.38	3.7080	3.7079	-1.0635	24.88	0.11	-0.050			
0.4173	26708.34	3.7070	3.7072	-1.0883	24.88	0.11	-0.050			
0.4184	26778.14	3.7060	3.7060	-1.1142	24.89	0.12	-0.050			
0.4195	26850.24	3.7050	3.7054	-1.1396	24.90	0.13	-0.050			
0.4207	26923.45	3.7040	3.7036	-1.1645	24.90	0.13	-0.050			
0.4219	26999.34	3.7030	3.7029	-1.1883	24.90	0.13	-0.050			
0.4231	27076.68	3.7020	3.7020	-1.2109	24.91	0.14	-0.050			
0.4243	27155.27	3.7010	3.7009	-1.2349	24.90	0.13	-0.050			
0.4255	27234.64	3.7000	3.7000	-1.2662	24.91	0.14	-0.050			
0.4268	27315.94	3.6990	3.6993	-1.2943	24.90	0.13	-0.050			
0.4281	27399.68	3.6980	3.6979	-1.3205	24.91	0.14	-0.050			
0.4295	27485.72	3.6970	3.6970	-1.3452	24.90	0.13	-0.050			
0.4308	27573.63	3.6960	3.6961	-1.3708	24.90	0.13	-0.050			
0.4322	27662.29	3.6950	3.6950	-1.3968	24.90	0.13	-0.050			
0.4337	27754.91	3.6940	3.6941	-1.4197	24.89	0.12	-0.050			
0.4351	27846.85	3.6930	3.6928	-1.4394	24.88	0.11	-0.050			
0.4365	27938.62	3.6920	3.6919	-1.4601	24.86	0.09	-0.050			
0.4380	28031.37	3.6910	3.6910	-1.4856	24.84	0.07	-0.050			
0.4395	28126.65	3.6900	3.6900	-1.5081	24.80	0.03	-0.050			
0.4410	28223.72	3.6890	3.6891	-1.5301	24.79	0.02	-0.050	0.479	0.605	
0.4426	28323.25	3.6880	3.6881	-1.5581	24.76	-0.01	-0.050			
0.4441	28423.17	3.6870	3.6870	-1.5825	24.74	-0.03	-0.050			
0.4457	28525.85	3.6860	3.6859	-1.6060	24.72	-0.05	-0.050			
0.4473	28629.77	3.6850	3.6852	-1.6303	24.70	-0.07	-0.050			
0.4490	28735.06	3.6840	3.6840	-1.6534	24.70	-0.07	-0.050			
0.4507	28841.63	3.6830	3.6828	-1.6798	24.72	-0.05	-0.050			
0.4523	28949.83	3.6820	3.6821	-1.7014	24.73	-0.04	-0.050			
0.4540	29058.25	3.6810	3.6811	-1.7226	24.75	-0.02	-0.050			
0.4558	29168.70	3.6800	3.6799	-1.7422	24.76	-0.01	-0.050			
0.4575	29282.17	3.6790	3.6791	-1.7704	24.77	-0.00	-0.050			
0.4593	29397.96	3.6780	3.6780	-1.7939	24.78	0.01	-0.050			
0.4612	29514.26	3.6770	3.6773	-1.8176	24.79	0.02	-0.050			
0.4630	29631.65	3.6760	3.6759	-1.8390	24.80	0.03	-0.050			
0.4649	29750.45	3.6750	3.6751	-1.8611	24.82	0.05	-0.050			
0.4667	29870.37	3.6740	3.6740	-1.8858	24.84	0.07	-0.050			
0.4686	29989.34	3.6730	3.6731	-1.9072	24.85	0.08	-0.050			
0.4705	30111.90	3.6720	3.6720	-1.9259	24.86	0.09	-0.050			
0.4724	30236.59	3.6710	3.6709	-1.9468	24.86	0.09	-0.050			
0.4744	30361.65	3.6700	3.6697	-1.9724	24.84	0.07	-0.050			
0.4764	30487.36	3.6690	3.6689	-1.9986	24.82	0.05	-0.050			
0.4784	30614.58	3.6680	3.6680	-2.0241	24.80	0.03	-0.050			
0.4804	30743.90	3.6670	3.6670	-2.0519	24.79	0.02	-0.050			
0.4824	30875.74	3.6660	3.6661	-2.0832	24.78	0.01	-0.050			
0.4845	31009.49	3.6650	3.6650	-2.1083	24.78	0.01	-0.050			
0.4866	31144.25	3.6640	3.6641	-2.1376	24.79	0.02	-0.050			
0.4888	31282.64	3.6630	3.6632	-2.1690	24.80	0.03	-0.050			
0.4910	31421.93	3.6620	3.6620	-2.1985	24.83	0.06	-0.050			
0.4932	31563.55	3.6610	3.6608	-2.2294	24.85	0.08	-0.050			
0.4954	31708.10	3.6600	3.6601	-2.2577	24.87	0.10	-0.050			
0.4977	31855.08	3.6590	3.6590	-2.2883	24.88	0.11	-0.050			
0.5000	32001.34	3.6580	3.6579	-2.3202	24.90	0.13	-0.050			
0.5024	32150.96	3.6570	3.6570	-2.3499	24.91	0.14	-0.050			
0.5047	32299.94	3.6560	3.6561	-2.3833	24.91	0.14	-0.050			
0.5071	32454.38	3.6550	3.6549	-2.4160	24.88	0.11	-0.050			
0.5095	32610.28	3.6540	3.6540	-2.4460	24.85	0.08	-0.050			
0.5120	32768.02	3.6530	3.6529	-2.4804	24.82	0.05	-0.050			
0.5145	32928.69	3.6520	3.6519	-2.5128	24.80	0.03	-0.050			
0.5170	33089.81	3.6510	3.6512	-2.5452	24.78	0.01	-0.050			
0.5195	33250.86	3.6500	3.6500	-2.5806	24.80	0.03	-0.050	0.431	0.612	
0.5221	33417.14	3.6490	3.6489	-2.6150	24.82	0.05	-0.050			
0.5248	33585.67	3.6480	3.6482	-2.6465	24.85	0.08	-0.050			
0.5274	33755.07	3.6470	3.6469	-2.6869	24.86	0.09	-0.050			
0.5301	33929.07	3.6460	3.6460	-2.7242	24.86	0.09	-0.050			
0.5329	34104.25	3.6450	3.6450	-2.7602	24.87	0.10	-0.050			
0.5357	34282.43	3.6440	3.6440	-2.7999	24.87	0.10	-0.050			
0.5385	34463.66	3.6430	3.6430	-2.8334	24.88	0.11	-0.050			
0.5414	34646.46	3.6420	3.6419	-2.8710	24.87	0.10	-0.050	0.571	0.714	
0.5442	34831.61	3.6410	3.6411	-2.9069	24.83	0.06	-0.050			
0.5471	35016.44	3.6400	3.6398	-2.9483	24.78	0.01	-0.050			
0.5501	35208.05	3.6390	3.6389	-2.9799	24.74	-0.03	-0.050			
0.5531	35399.31	3.6380	3.6380	-3.0119	24.73	-0.04	-0.050			
0.5562	35595.44	3.6370	3.6371	-3.0517	24.75	-0.02	-0.050			
0.5592	35791.11	3.6360	3.6360	-3.0859	24.75	-0.02	-0.050	0.208	0.556	
0.5623	35988.44	3.6350	3.6349	-3.1239	24.76	-0.01	-0.050			
0.5655	36190.64	3.6340	3.6340	-3.1492	24.78	0.01	-0.050			
0.5686	36392.95	3.6330	3.6328	-3.1831	24.79	0.02	-0.050			
0.5719	36599.51	3.6320	3.6322	-3.2232	24.79	0.02	-0.050			
0.5751	36803.78	3.6310	3.6308	-3.2635	24.76	-0.01	-0.050			
0.5784	37016.22	3.6300	3.6300	-3.2884	24.72	-0.05	-0.050			
0.5817	37226.34	3.6290	3.6291	-3.3297	24.68	-0.09	-0.050	0.447	0.568	
0.5850	37441.51	3.6280	3.6280	-3.3725	24.67	-0.10	-0.050			
0.5884	37657.86	3.6270	3.6269	-3.4039	24.71	-0.06	-0.050			
0.5918	37877.42	3.6260	3.6259	-3.4296	24.76	-0.01	-0.050			
0.5953	38097.94	3.6250	3.6249	-3.4571	24.78	0.01	-0.050			
0.5988	38324.75	3.6240	3.6240	-3.4869	24.78	0.01	-0.050	0.526	0.587	
0.6023	38548.94	3.6230	3.6229	-3.5011	24.78	0.01	-0.050			
0.6059	38776.63	3.6220	3.6221	-3.5165	24.80	0.03	-0.050			
0.6094	39002.66	3.6210	3.6211	-3.5285	24.85	0.08	-0.050			
0.6130	39232.20	3.6200	3.6199	-3.5437	24.83	0.06	-0.050			
0.6165	39457.84	3.6190	3.6190	-3.5399	24.79	0.02	-0.050			
0.6201	39687.05	3.6180	3.6180	-3.5342	24.76	-0.01	-0.050	-0.300	0.493	
0.6237	39913.79	3.6170	3.6169	-3.5209	24.80	0.03	-0.050			
0.6272	40143.23	3.6160	3.6160	-3.5047	24.85	0.08	-0.050			
0.6307	40366.48	3.6150	3.6149	-3.4716	24.88	0.11	-0.050			
0.6342	40590.88	3.6140	3.6140	-3.4521	24.88	0.11	-0.050			
0.6377	40813.40	3.6130	3.6131	-3.4265	24.88	0.11	-0.050			
0.6411	41032.60	3.6120	3.6119	-3.3965	24.90	0.13	-0.050	0.614	0.708	
0.6445	41249.54	3.6110	3.6111	-3.3553	24.86	0.09	-0.050			
0.6479	41465.45	3.6100	3.6101	-3.3128	24.81	0.04	-0.050			
0.6512	41677.27	3.6090	3.6088	-3.2575	24.78	0.01	-0.050			
0.6545	41885.68	3.6080	3.6079	-3.2074	24.76	-0.01	-0.050			
0.6577	42091.39	3.6070	3.6070	-3.1400	24.77	0.00	-0.050			
0.6608	42290.01	3.6060	3.6060	-3.0770	24.78	0.01	-0.050	0.391	0.677	
0.6639	42489.75	3.6050	3.6050	-3.0142	24.80	0.03	-0.050			
0.6669	42682.47	3.6040	3.6040	-2.9495	24.80	0.03	-0.050			
0.6698	42869.30	3.6030	3.6030	-2.8791	24.79	0.02	-0.050			
0.6727	43050.98	3.6020	3.6020	-2.8106	24.80	0.03	-0.050			
0.6754	43227.05	3.6010	3.6010	-2.7429	24.80	0.03	-0.050			
0.6781	43396.63	3.6000	3.6001	-2.6663	24.82	0.05	-0.050			
0.6807	43562.51	3.5990	3.5991	-2.5991	24.80	0.03	-0.050			
0.6832	43722.23	3.5980	3.5980	-2.5358	24.78	0.01	-0.050			
0.6856	43879.93	3.5970	3.5970	-2.4789	24.76	-0.01	-0.050			
0.6881	44036.90	3.5960	3.5960	-2.4262	24.75	-0.02	-0.050			
0.6904	44185.25	3.5950	3.5951	-2.3794	24.76	-0.01	-0.050			
0.6927	44333.16	3.5940	3.5940	-2.3351	24.79	0.02	-0.050			
0.6950	44477.33	3.5930	3.5929	-2.2938	24.81	0.04	-0.050			
0.6972	44619.15	3.5920	3.5920	-2.2632	24.83	0.06	-0.050			
0.6994	44760.84	3.5910	3.5908	-2.2316	24.85	0.08	-0.050			
0.7016	44900.31	3.5900	3.5899	-2.2034	24.86	0.09	-0.050	0.567	0.675	
0.7038	45040.11	3.5890	3.5889	-2.1789	24.85	0.08	-0.050			
0.7059	45175.96	3.5880	3.5880	-2.1548	24.86	0.09	-0.050			
0.7080	45314.59	3.5870	3.5869	-2.1346	24.85	0.08	-0.050			
0.7102	45451.16	3.5860	3.5860	-2.1112	24.85	0.08	-0.050			
0.7123	45586.01	3.5850	3.5854	-2.0870	24.83	0.06	-0.050			
0.7144	45719.32	3.5840	3.5838	-2.0655	24.82	0.05	-0.050			
0.7164	45852.37	3.5830	3.5830	-2.0417	24.80	0.03	-0.050			
0.7185	45982.27	3.5820	3.5821	-2.0153	24.79	0.02	-0.050			
0.7205	46112.27	3.5810	3.5810	-1.9927	24.78	0.01	-0.050	0.591	0.703	
0.7225	46239.72	3.5800	3.5801	-1.9676	24.78	0.01	-0.050			
0.7244	46364.77	3.5790	3.5791	-1.9389	24.81	0.04	-0.050			
0.7264	46488.79	3.5780	3.5784	-1.9124	24.84	0.07	-0.050			
0.7283	46610.42	3.5770	3.5768	-1.8849	24.88	0.11	-0.050			
0.7301	46728.67	3.5760	3.5759	-1.8576	24.90	0.13	-0.050			
0.7320	46846.59	3.5750	3.5750	-1.8321	24.93	0.16	-0.050			
0.7338	46961.93	3.5740	3.5740	-1.8075	24.94	0.17	-0.050			
0.7356	47075.57	3.5730	3.5728	-1.7813	24.95	0.18	-0.050			
0.7373	47186.84	3.5720	3.5722	-1.7568	24.97	0.20	-0.050			
0.7391	47299.29	3.5710	3.5710	-1.7361	24.98	0.21	-0.050			
0.7408	47409.12	3.5700	3.5699	-1.7131	25.00	0.23	-0.050	0.507	0.549	
0.7424	47516.45	3.5690	3.5689	-1.6938	25.01	0.24	-0.050			
0.7441	47622.79	3.5680	3.5680	-1.6760	25.02	0.25	-0.050			
0.7458	47728.60	3.5670	3.5669	-1.6682	25.02	0.25	-0.050			
0.7474	47832.91	3.5660	3.5662	-1.6549	25.02	0.25	-0.050			
0.7490	47935.56	3.5650	3.5650	-1.6463	25.01	0.24	-0.050			
0.7506	48038.50	3.5640	3.5643	-1.6428	24.97	0.20	-0.050			
0.7522	48141.55	3.5630	3.5630	-1.6438	24.96	0.19	-0.050			
0.7538	48243.39	3.5620	3.5620	-1.6420	24.93	0.16	-0.050			
0.7554	48346.61	3.5610	3.5610	-1.6473	24.90	0.13	-0.050			
0.7570	48450.65	3.5600	3.5599	-1.6531	24.88	0.11	-0.050			
0.7587	48555.08	3.5590	3.5589	-1.6593	24.85	0.08	-0.050			
0.7603	48661.33	3.5580	3.5580	-1.6663	24.85	0.08	-0.050	-0.203	0.660	
0.7620	48767.64	3.5570	3.5570	-1.6722	24.86	0.09	-0.050			
0.7637	48876.30	3.5560	3.5558	-1.6752	24.86	0.09	-0.050			
0.7654	48986.04	3.5550	3.5549	-1.6800	24.86	0.09	-0.050			
0.7671	49095.51	3.5540	3.5540	-1.6832	24.86	0.09	-0.050			
0.7688	49206.02	3.5530	3.5528	-1.6847	24.86	0.09	-0.050			
0.7706	49318.10	3.5520	3.5520	-1.6837	24.87	0.10	-0.050			
0.7723	49428.35	3.5510	3.5511	-1.6772	24.88	0.11	-0.050			
0.7740	49537.45	3.5500	3.5500	-1.6677	24.88	0.11	-0.050			
0.7757	49647.05	3.5490	3.5489	-1.6488	24.88	0.11	-0.050			
0.7774	49754.03	3.5480	3.5481	-1.6275	24.88	0.11	-0.050			
0.7791	49859.89	3.5470	3.5470	-1.6056	24.88	0.11	-0.050			
0.7807	49963.97	3.5460	3.5460	-1.5797	24.87	0.10	-0.050	0.443	0.844	
0.7823	50066.23	3.5450	3.5450	-1.5510	24.86	0.09	-0.050			
0.7838	50165.49	3.5440	3.5439	-1.5190	24.85	0.08	-0.050			
0.7854	50264.16	3.5430	3.5430	-1.4862	24.82	0.05	-0.050			
0.7868	50358.01	3.5420	3.5419	-1.4513	24.80	0.03	-0.050			
0.7883	50450.10	3.5410	3.5408	-1.4155	24.80	0.03	-0.050			
0.7897	50539.96	3.5400	3.5400	-1.3792	24.78	0.01	-0.050			
0.7910	50626.78	3.5390	3.5389	-1.3467	24.76	-0.01	-0.050			
0.7924	50712.25	3.5380	3.5380	-1.3113	24.76	-0.01	-0.050			
0.7937	50795.15	3.5370	3.5370	-1.2755	24.76	-0.01	-0.050			
0.7949	50875.28	3.5360	3.5359	-1.2417	24.77	-0.00	-0.050			
0.7961	50951.98	3.5350	3.5349	-1.2054	24.78	0.01	-0.050			
0.7973	51027.06	3.5340	3.5340	-1.1735	24.80	0.03	-0.050			
0.7984	51099.53	3.5330	3.5330	-1.1440	24.81	0.04	-0.050			
0.7995	51169.59	3.5320	3.5321	-1.1150	24.82	0.05	-0.050			
0.8006	51238.89	3.5310	3.5308	-1.0874	24.82	0.05	-0.050	0.626	0.785	
0.8017	51306.44	3.5300	3.5300	-1.0626	24.83	0.06	-0.050			
0.8027	51373.21	3.5290	3.5294	-1.0403	24.84	0.07	-0.050			
0.8037	51436.91	3.5280	3.5280	-1.0206	24.85	0.08	-0.050			
0.8047	51499.89	3.5270	3.5270	-1.0017	24.85	0.08	-0.050			
0.8056	51561.10	3.5260	3.5259	-0.9893	24.85	0.08	-0.050			
0.8066	51622.38	3.5250	3.5250	-0.9758	24.86	0.09	-0.050			
0.8075	51682.21	3.5240	3.5239	-0.9727	24.86	0.09	-0.050			
0.8085	51741.30	3.5230	3.5230	-0.9666	24.86	0.09	-0.050			
0.8094	51799.83	3.5220	3.5220	-0.9616	24.87	0.10	-0.050			
0.8103	51859.16	3.5210	3.5210	-0.9613	24.86	0.09	-0.050			
0.8112	51919.49	3.5200	3.5198	-0.9658	24.88	0.11	-0.050			
0.8122	51978.17	3.5190	3.5190	-0.9664	24.88	0.11	-0.050			
0.8131	52040.01	3.5180	3.5180	-0.9776	24.88	0.11	-0.050			
0.8141	52102.78	3.5170	3.5171	-0.9844	24.89	0.12	-0.050			
0.8151	52166.67	3.5160	3.5160	-0.9869	24.89	0.12	-0.050			
0.8161	52230.84	3.5150	3.5148	-0.9934	24.89	0.12	-0.050			
0.8171	52296.07	3.5140	3.5141	-0.9956	24.88	0.11	-0.050			
0.8181	52361.44	3.5130	3.5129	-0.9984	24.87	0.10	-0.050			
0.8192	52427.75	3.5120	3.5119	-0.9971	24.85	0.08	-0.050			
0.8202	52493.00	3.5110	3.5111	-0.9953	24.83	0.06	-0.050	0.357	0.696	
0.8213	52560.21	3.5100	3.5100	-0.9965	24.80	0.03	-0.050			
0.8223	52624.90	3.5090	3.5091	-0.9882	24.79	0.02	-0.050			
0.8233	52690.24	3.5080	3.5080	-0.9793	24.78	0.01	-0.050			
0.8243	52753.59	3.5070	3.5070	-0.9678	24.77	-0.00	-0.050			
0.8253	52816.75	3.5060	3.5060	-0.9542	24.76	-0.01	-0.050			
0.8262	52878.05	3.5050	3.5050	-0.9379	24.75	-0.02	-0.050			
0.8272	52938.11	3.5040	3.5040	-0.9220	24.75	-0.02	-0.050			
0.8281	52998.14	3.5030	3.5027	-0.9084	24.75	-0.02	-0.050			
0.8290	53054.36	3.5020	3.5021	-0.8941	24.76	-0.01	-0.050			
0.8299	53110.55	3.5010	3.5010	-0.8778	24.77	-0.00	-0.050			
0.8307	53165.00	3.5000	3.5004	-0.8618	24.78	0.01	-0.050			
0.8315	53218.34	3.4990	3.4991	-0.8475	24.79	0.02	-0.050			
0.8323	53270.40	3.4980	3.4980	-0.8374	24.80	0.03	-0.050			
0.8332	53322.55	3.4970	3.4970	-0.8281	24.81	0.04	-0.050			
0.8340	53373.64	3.4960	3.4960	-0.8252	24.82	0.05	-0.050			
0.8348	53424.37	3.4950	3.4950	-0.8210	24.83	0.06	-0.050			
0.8355	53472.88	3.4940	3.4940	-0.8229	24.85	0.08	-0.050			
0.8363	53522.10	3.4930	3.4929	-0.8307	24.85	0.08	-0.050			
0.8370	53570.88	3.4920	3.4921	-0.8386	24.86	0.09	-0.050			
0.8378	53620.66	3.4910	3.4914	-0.8566	24.88	0.11	-0.050			
0.8386	53670.36	3.4900	3.4900	-0.8745	24.89	0.12	-0.050			
0.8394	53720.35	3.4890	3.4891	-0.9128	24.90	0.13	-0.050			
0.8402	53772.10	3.4880	3.4881	-0.9593	24.90	0.13	-0.050			
0.8410	53826.48	3.4870	3.4871	-1.0148	24.92	0.15	-0.050	0.509	0.681	
0.8419	53878.91	3.4860	3.4862	-1.0757	24.93	0.16	-0.050			
0.8428	53938.08	3.4850	3.4854	-1.1600	24.94	0.17	-0.050			
0.8439	54007.01	3.4840	3.4842	-1.2488	24.94	0.17	-0.050			
0.8450	54080.08	3.4830	3.4832	-1.3540	24.95	0.18	-0.050			
0.8463	54163.81	3.4820	3.4819	-1.4464	24.96	0.19	-0.050			
0.8478	54258.35	3.4810	3.4810	-1.5606	24.96	0.19	-0.050			
0.8494	54361.61	3.4800	3.4798	-1.6787	24.96	0.19	-0.050			
0.8512	54477.52	3.4790	3.4787	-1.7909	24.94	0.17	-0.050			
0.8531	54599.12	3.4780	3.4777	-1.9030	24.93	0.16	-0.050			
0.8552	54732.00	3.4770	3.4769	-2.0056	24.90	0.13	-0.050			
0.8574	54872.49	3.4760	3.4758	-2.1053	24.89	0.12	-0.050			
0.8597	55019.00	3.4750	3.4750	-2.1888	24.88	0.11	-0.050	0.514	0.644	
0.8621	55172.86	3.4740	3.4739	-2.2676	24.87	0.10	-0.050			
0.8646	55331.33	3.4730	3.4731	-2.3365	24.90	0.13	-0.050			
0.8671	55494.05	3.4720	3.4720	-2.3855	24.92	0.15	-0.050			
0.8697	55657.77	3.4710	3.4711	-2.4111	24.93	0.16	-0.050			
0.8722	55821.32	3.4700	3.4701	-2.4230	24.93	0.16	-0.050			
0.8748	55984.13	3.4690	3.4692	-2.4235	24.93	0.16	-0.050			
0.8773	56146.36	3.4680	3.4680	-2.4137	24.93	0.16	-0.050			
0.8797	56303.42	3.4670	3.4673	-2.3916	24.92	0.15	-0.050	0.524	0.644	
0.8822	56458.92	3.4660	3.4661	-2.3634	24.93	0.16	-0.050			
0.8846	56612.98	3.4650	3.4650	-2.3313	24.93	0.16	-0.050			
0.8869	56762.43	3.4640	3.4640	-2.2890	24.90	0.13	-0.050			
0.8892	56909.85	3.4630	3.4629	-2.2432	24.87	0.10	-0.050			
0.8915	57054.19	3.4620	3.4620	-2.1944	24.84	0.07	-0.050			
0.8937	57193.78	3.4610	3.4612	-2.1430	24.82	0.05	-0.050			
0.8958	57329.85	3.4600	3.4601	-2.0914	24.81	0.04	-0.050			
0.8979	57464.23	3.4590	3.4591	-2.0419	24.82	0.05	-0.050			
0.8999	57594.17	3.4580	3.4579	-1.9854	24.84	0.07	-0.050	0.461	0.679	
0.9019	57720.45	3.4570	3.4570	-1.9260	24.85	0.08	-0.050			
0.9038	57843.13	3.4560	3.4561	-1.8671	24.85	0.08	-0.050			
0.9057	57962.24	3.4550	3.4551	-1.8082	24.85	0.08	-0.050			
0.9074	58076.48	3.4540	3.4542	-1.7471	24.86	0.09	-0.050			
0.9092	58187.61	3.4530	3.4529	-1.6853	24.86	0.09	-0.050			
0.9109	58294.96	3.4520	3.4520	-1.6225	24.86	0.09	-0.050			
0.9124	58396.71	3.4510	3.4509	-1.5557	24.86	0.09	-0.050			
0.9140	58495.22	3.4500	3.4500	-1.4909	24.87	0.10	-0.050			
0.9154	58587.60	3.4490	3.4490	-1.4237	24.88	0.11	-0.050			
0.9168	58675.70	3.4480	3.4480	-1.3578	24.88	0.11	-0.050			
0.9181	58760.76	3.4470	3.4469	-1.2945	24.88	0.11	-0.050			
0.9194	58840.99	3.4460	3.4460	-1.2312	24.86	0.09	-0.050			
0.9206	58917.50	3.4450	3.4448	-1.1691	24.86	0.09	-0.050	0.527	0.807	
0.9217	58990.05	3.4440	3.4442	-1.1080	24.84	0.07	-0.050			
0.9228	59059.67	3.4430	3.4430	-1.0500	24.82	0.05	-0.050			
0.9238	59122.45	3.4420	3.4419	-0.9897	24.81	0.04	-0.050			
0.9247	59181.76	3.4410	3.4410	-0.9340	24.80	0.03	-0.050			
0.9256	59236.28	3.4400	3.4400	-0.8791	24.80	0.03	-0.050			
0.9264	59290.48	3.4390	3.4390	-0.8270	24.79	0.02	-0.050			
0.9272	59340.20	3.4380	3.4381	-0.7820	24.78	0.01	-0.050			
0.9279	59384.95	3.4370	3.4369	-0.7362	24.78	0.01	-0.050			
0.9286	59428.84	3.4360	3.4361	-0.6895	24.76	-0.01	-0.050			
0.9292	59469.57	3.4350	3.4350	-0.6545	24.76	-0.01	-0.050			
0.9298	59505.92	3.4340	3.4340	-0.6187	24.76	-0.01	-0.050			
0.9304	59544.21	3.4330	3.4329	-0.5852	24.76	-0.01	-0.050			
0.9309	59576.62	3.4320	3.4319	-0.5547	24.77	-0.00	-0.050			
0.9314	59610.19	3.4310	3.4309	-0.5251	24.77	0.00	-0.050			
0.9319	59640.71	3.4300	3.4300	-0.5016	24.78	0.01	-0.050			
0.9323	59669.63	3.4290	3.4290	-0.4738	24.79	0.02	-0.050			
0.9328	59697.37	3.4280	3.4280	-0.4546	24.80	0.03	-0.050			
0.9332	59724.77	3.4270	3.4269	-0.4336	24.80	0.03	-0.050			
0.9336	59750.35	3.4260	3.4258	-0.4182	24.81	0.04	-0.050			
0.9340	59775.69	3.4250	3.4249	-0.4007	24.81	0.04	-0.050			
0.9344	59799.45	3.4240	3.4240	-0.3889	24.82	0.05	-0.050			
0.9347	59823.31	3.4230	3.4231	-0.3746	24.82	0.05	-0.050			
0.9351	59845.16	3.4220	3.4223	-0.3641	24.82	0.05	-0.050			
0.9354	59867.37	3.4210	3.4213	-0.3518	24.82	0.05	-0.050			
0.9357	59887.90	3.4200	3.4200	-0.3430	24.83	0.06	-0.050			
0.9361	59909.60	3.4190	3.4189	-0.3350	24.85	0.08	-0.050			
0.9364	59929.51	3.4180	3.4178	-0.3276	24.85	0.08	-0.050			
0.9367	59949.60	3.4170	3.4169	-0.3194	24.85	0.08	-0.050			
0.9370	59969.85	3.4160	3.4160	-0.3134	24.85	0.08	-0.050			
0.9373	59988.69	3.4150	3.4149	-0.3078	24.85	0.08	-0.050			
0.9376	60007.24	3.4140	3.4139	-0.3003	24.86	0.09	-0.050			
0.9379	60026.34	3.4130	3.4131	-0.2965	24.86	0.09	-0.050			
0.9382	60044.66	3.4120	3.4120	-0.2915	24.86	0.09	-0.050			
0.9385	60062.97	3.4110	3.4111	-0.2890	24.86	0.09	-0.050			
0.9388	60081.49	3.4100	3.4100	-0.2863	24.86	0.09	-0.050			
0.9391	60099.72	3.4090	3.4092	-0.2832	24.86	0.09	-0.050			
0.9393	60117.53	3.4080	3.4080	-0.2824	24.87	0.10	-0.050			
0.9396	60135.52	3.4070	3.4070	-0.2797	24.87	0.10	-0.050			
0.9399	60153.03	3.4060	3.4060	-0.2762	24.87	0.10	-0.050			
0.9402	60170.63	3.4050	3.4049	-0.2738	24.88	0.11	-0.050			
0.9404	60187.84	3.4040	3.4039	-0.2710	24.88	0.11	-0.050			
0.9407	60205.16	3.4030	3.4029	-0.2686	24.88	0.11	-0.050	0.464	0.720	
0.9410	60221.96	3.4020	3.4017	-0.2656	24.88	0.11	-0.050			
0.9412	60238.74	3.4010	3.4009	-0.2642	24.88	0.11	-0.050			
0.9415	60255.44	3.4000	3.4000	-0.2621	24.88	0.11	-0.050			
0.9418	60272.16	3.3990	3.3990	-0.2604	24.88	0.11	-0.050			
0.9420	60288.81	3.3980	3.3981	-0.2581	24.88	0.11	-0.050			
0.9423	60305.28	3.3970	3.3973	-0.2564	24.89	0.12	-0.050			
0.9425	60321.61	3.3960	3.3962	-0.2548	24.89	0.12	-0.050			
0.9428	60338.14	3.3950	3.3950	-0.2537	24.90	0.13	-0.050			
0.9430	60354.31	3.3940	3.3939	-0.2518	24.90	0.13	-0.050			
0.9433	60370.27	3.3930	3.3929	-0.2503	24.90	0.13	-0.050			
0.9435	60386.38	3.3920	3.3919	-0.2487	24.90	0.13	-0.050			
0.9438	60402.20	3.3910	3.3909	-0.2467	24.90	0.13	-0.050			
0.9440	60417.63	3.3900	3.3901	-0.2458	24.90	0.13	-0.050			
0.9443	60433.32	3.3890	3.3890	-0.2443	24.90	0.13	-0.050			
0.9445	60448.25	3.3880	3.3881	-0.2424	24.90	0.13	-0.050			
0.9447	60463.74	3.3870	3.3871	-0.2416	24.91	0.14	-0.050			
0.9450	60478.77	3.3860	3.3860	-0.2400	24.91	0.14	-0.050			
0.9452	60494.35	3.3850	3.3849	-0.2388	24.92	0.15	-0.050			
0.9455	60509.60	3.3840	3.3840	-0.2380	24.92	0.15	-0.050			
0.9457	60525.18	3.3830	3.3830	-0.2377	24.92	0.15	-0.050			
0.9459	60540.46	3.3820	3.3820	-0.2363	24.92	0.15	-0.050			
0.9462	60555.55	3.3810	3.3809	-0.2351	24.92	0.15	-0.050			
0.9464	60570.56	3.3800	3.3799	-0.2339	24.92	0.15	-0.050			
0.9466	60585.29	3.3790	3.3791	-0.2336	24.93	0.16	-0.050			
0.9469	60600.00	3.3780	3.3780	-0.2323	24.93	0.16	-0.050			
0.9471	60615.19	3.3770	3.3771	-0.2305	24.93	0.16	-0.050			
0.9473	60630.21	3.3760	3.3760	-0.2301	24.93	0.16	-0.050			
0.9476	60644.89	3.3750	3.3750	-0.2287	24.93	0.16	-0.050			
0.9478	60659.58	3.3740	3.3740	-0.2269	24.93	0.16	-0.050			
0.9480	60674.16	3.3730	3.3728	-0.2256	24.93	0.16	-0.050			
0.9483	60688.55	3.3720	3.3720	-0.2240	24.93	0.16	-0.050			
0.9485	60702.69	3.3710	3.3710	-0.2230	24.94	0.17	-0.050			
0.9487	60716.96	3.3700	3.3699	-0.2216	24.94	0.17	-0.050			
0.9489	60731.10	3.3690	3.3689	-0.2201	24.94	0.17	-0.050			
0.9491	60744.61	3.3680	3.3683	-0.2193	24.94	0.17	-0.050			
0.9494	60758.61	3.3670	3.3673	-0.2183	24.94	0.17	-0.050			
0.9496	60772.55	3.3660	3.3659	-0.2174	24.94	0.17	-0.050			
0.9498	60786.15	3.3650	3.3650	-0.2164	24.95	0.18	-0.050			
0.9500	60799.97	3.3640	3.3639	-0.2157	24.95	0.18	-0.050			
0.9502	60813.76	3.3630	3.3629	-0.2150	24.96	0.19	-0.050			
0.9504	60827.43	3.3620	3.3619	-0.2143	24.96	0.19	-0.050			
0.9506	60841.13	3.3610	3.3608	-0.2137	24.96	0.19	-0.050			
0.9509	60854.79	3.3600	3.3600	-0.2131	24.96	0.19	-0.050			
0.9511	60868.31	3.3590	3.3589	-0.2119	24.96	0.19	-0.050			
0.9513	60881.85	3.3580	3.3579	-0.2113	24.96	0.19	-0.050			
0.9515	60895.04	3.3570	3.3571	-0.2101	24.96	0.19	-0.050			
0.9517	60908.74	3.3560	3.3561	-0.2092	24.97	0.20	-0.050			
0.9519	60922.11	3.3550	3.3551	-0.2086	24.97	0.20	-0.050			
0.9521	60936.00	3.3540	3.3540	-0.2091	24.97	0.20	-0.050			
0.9523	60949.33	3.3530	3.3530	-0.2082	24.97	0.20	-0.050			
0.9525	60962.62	3.3520	3.3520	-0.2072	24.97	0.20	-0.050			
0.9528	60976.07	3.3510	3.3511	-0.2066	24.97	0.20	-0.050			
0.9530	60989.01	3.3500	3.3501	-0.2060	24.97	0.20	-0.050			
0.9532	61002.17	3.3490	3.3490	-0.2050	24.97	0.20	-0.050			
0.9534	61015.15	3.3480	3.3479	-0.2039	24.98	0.21	-0.050			
0.9536	61028.17	3.3470	3.3470	-0.2030	24.98	0.21	-0.050			
0.9538	61040.77	3.3460	3.3461	-0.2036	24.98	0.21	-0.050			
0.9540	61053.38	3.3450	3.3451	-0.2024	24.98	0.21	-0.050			
0.9542	61066.89	3.3440	3.3440	-0.2011	24.97	0.20	-0.050			
0.9544	61079.75	3.3430	3.3429	-0.2005	24.97	0.20	-0.050			
0.9546	61092.59	3.3420	3.3419	-0.2000	24.97	0.20	-0.050			
0.9548	61105.37	3.3410	3.3409	-0.1994	24.97	0.20	-0.050			
0.9550	61118.23	3.3400	3.3398	-0.1983	24.96	0.19	-0.050			
0.9552	61130.98	3.3390	3.3391	-0.1978	24.96	0.19	-0.050			
0.9554	61143.61	3.3380	3.3379	-0.1970	24.96	0.19	-0.050			
0.9556	61156.19	3.3370	3.3370	-0.1962	24.96	0.19	-0.050			
0.9558	61168.91	3.3360	3.3360	-0.1958	24.96	0.19	-0.050			
0.9560	61181.41	3.3350	3.3350	-0.1948	24.96	0.19	-0.050			
0.9562	61193.85	3.3340	3.3343	-0.1939	24.96	0.19	-0.050			
0.9563	61206.29	3.3330	3.3333	-0.1937	24.96	0.19	-0.050			
0.9565	61218.66	3.3320	3.3320	-0.1927	24.96	0.19	-0.050			
0.9567	61230.96	3.3310	3.3309	-0.1917	24.95	0.18	-0.050			
0.9569	61243.12	3.3300	3.3299	-0.1909	24.95	0.18	-0.050			
0.9571	61255.31	3.3290	3.3289	-0.1899	24.95	0.18	-0.050			
0.9573	61267.43	3.3280	3.3279	-0.1890	24.95	0.18	-0.050			
0.9575	61279.59	3.3270	3.3270	-0.1878	24.94	0.17	-0.050			
0.9577	61291.39	3.3260	3.3260	-0.1863	24.94	0.17	-0.050			
0.9579	61303.29	3.3250	3.3250	-0.1854	24.94	0.17	-0.050			
0.9580	61314.81	3.3240	3.3239	-0.1839	24.94	0.17	-0.050			
0.9582	61326.51	3.3230	3.3231	-0.1835	24.94	0.17	-0.050			
0.9584	61338.23	3.3220	3.3221	-0.1830	24.94	0.17	-0.050			
0.9586	61349.93	3.3210	3.3211	-0.1824	24.94	0.17	-0.050			
0.9588	61362.10	3.3200	3.3201	-0.1828	24.94	0.17	-0.050			
0.9590	61373.55	3.3190	3.3190	-0.1825	24.94	0.17	-0.050			
0.9591	61385.21	3.3180	3.3179	-0.1818	24.93	0.16	-0.050			
0.9593	61396.59	3.3170	3.3171	-0.1807	24.93	0.16	-0.050			
0.9595	61408.07	3.3160	3.3161	-0.1804	24.93	0.16	-0.050			
0.9597	61419.60	3.3150	3.3151	-0.1799	24.93	0.16	-0.050			
0.9599	61431.10	3.3140	3.3138	-0.1795	24.93	0.16	-0.050			
0.9600	61442.31	3.3130	3.3128	-0.1788	24.93	0.16	-0.050			
0.9602	61453.87	3.3120	3.3120	-0.1782	24.93	0.16	-0.050			
0.9604	61465.26	3.3110	3.3110	-0.1778	24.93	0.16	-0.050			
0.9606	61476.49	3.3100	3.3100	-0.1772	24.93	0.16	-0.050			
0.9607	61487.67	3.3090	3.3091	-0.1774	24.93	0.16	-0.050	0.622	0.856	
0.9609	61499.02	3.3080	3.3079	-0.1773	24.92	0.15	-0.050			
0.9611	61510.37	3.3070	3.3071	-0.1772	24.92	0.15	-0.050			
0.9613	61521.71	3.3060	3.3061	-0.1771	24.92	0.15	-0.050			
0.9615	61533.82	3.3050	3.3050	-0.1745	24.92	0.15	-0.050			
0.9616	61544.96	3.3040	3.3041	-0.1736	24.91	0.14	-0.050			
0.9618	61556.59	3.3030	3.3029	-0.1738	24.91	0.14	-0.050			
0.9620	61567.67	3.3020	3.3018	-0.1724	24.91	0.14	-0.050			
0.9622	61578.42	3.3010	3.3010	-0.1720	24.91	0.14	-0.050			
0.9623	61589.39	3.3000	3.3000	-0.1709	24.91	0.14	-0.050			
0.9625	61600.41	3.2990	3.2989	-0.1700	24.90	0.13	-0.050			
0.9627	61610.99	3.2980	3.2980	-0.1693	24.90	0.13	-0.050			
0.9628	61621.79	3.2970	3.2970	-0.1683	24.90	0.13	-0.050			
0.9630	61632.44	3.2960	3.2963	-0.1671	24.90	0.13	-0.050			
0.9632	61643.11	3.2950	3.2954	-0.1662	24.90	0.13	-0.050			
0.9633	61653.45	3.2940	3.2942	-0.1661	24.90	0.13	-0.050			
0.9635	61664.06	3.2930	3.2926	-0.1654	24.90	0.13	-0.050			
0.9637	61674.46	3.2920	3.2916	-0.1645	24.90	0.13	-0.050			
0.9638	61684.97	3.2910	3.2910	-0.1639	24.90	0.13	-0.050			
0.9640	61695.34	3.2900	3.2900	-0.1637	24.90	0.13	-0.050			
0.9641	61705.51	3.2890	3.2891	-0.1625	24.90	0.13	-0.050			
0.9643	61715.91	3.2880	3.2879	-0.1623	24.90	0.13	-0.050			
0.9645	61726.29	3.2870	3.2870	-0.1621	24.90	0.13	-0.050			
0.9646	61736.78	3.2860	3.2860	-0.1615	24.90	0.13	-0.050			
0.9648	61746.76	3.2850	3.2850	-0.1604	24.90	0.13	-0.050			
0.9650	61757.02	3.2840	3.2839	-0.1603	24.90	0.13	-0.050			
0.9651	61767.28	3.2830	3.2831	-0.1603	24.90	0.13	-0.050			
0.9653	61777.80	3.2820	3.2821	-0.1593	24.90	0.13	-0.050			
0.9654	61788.75	3.2810	3.2810	-0.1606	24.90	0.13	-0.050			
0.9656	61799.01	3.2800	3.2799	-0.1598	24.91	0.14	-0.050			
0.9658	61809.21	3.2790	3.2790	-0.1589	24.91	0.14	-0.050			
0.9659	61818.95	3.2780	3.2781	-0.1581	24.92	0.15	-0.050			
0.9661	61829.06	3.2770	3.2771	-0.1576	24.93	0.16	-0.050			
0.9662	61839.13	3.2760	3.2760	-0.1571	24.93	0.16	-0.050			
0.9664	61849.17	3.2750	3.2750	-0.1566	24.93	0.16	-0.050			
0.9666	61859.37	3.2740	3.2740	-0.1561	24.93	0.16	-0.050			
0.9667	61869.34	3.2730	3.2730	-0.1554	24.94	0.17	-0.050			
0.9669	61879.27	3.2720	3.2720	-0.1548	24.94	0.17	-0.050			
0.9670	61889.15	3.2710	3.2709	-0.1541	24.94	0.17	-0.050			
0.9672	61898.89	3.2700	3.2700	-0.1533	24.94	0.17	-0.050			
0.9673	61908.53	3.2690	3.2690	-0.1532	24.94	0.17	-0.050			
0.9675	61918.32	3.2680	3.2679	-0.1528	24.95	0.18	-0.050			
0.9676	61928.08	3.2670	3.2669	-0.1524	24.95	0.18	-0.050			
0.9678	61937.72	3.2660	3.2661	-0.1518	24.95	0.18	-0.050			
0.9679	61947.49	3.2650	3.2651	-0.1513	24.95	0.18	-0.050			
0.9681	61957.16	3.2640	3.2640	-0.1509	24.95	0.18	-0.050			
0.9682	61966.81	3.2630	3.2630	-0.1506	24.95	0.18	-0.050			
0.9684	61976.45	3.2620	3.2619	-0.1502	24.96	0.19	-0.050			
0.9685	61986.13	3.2610	3.2609	-0.1496	24.96	0.19	-0.050			
0.9687	61995.69	3.2600	3.2599	-0.1492	24.96	0.19	-0.050			
0.9688	62005.22	3.2590	3.2590	-0.1487	24.96	0.19	-0.050			
0.9690	62014.82	3.2580	3.2581	-0.1484	24.97	0.20	-0.050			
0.9691	62024.35	3.2570	3.2571	-0.1477	24.97	0.20	-0.050			
0.9693	62033.78	3.2560	3.2560	-0.1471	24.97	0.20	-0.050			
0.9694	62043.18	3.2550	3.2550	-0.1465	24.98	0.21	-0.050			
0.9696	62052.46	3.2540	3.2539	-0.1458	24.98	0.21	-0.050			
0.9697	62061.77	3.2530	3.2529	-0.1452	24.98	0.21	-0.050			
0.9699	62070.93	3.2520	3.2519	-0.1451	24.98	0.21	-0.050			
0.9700	62080.20	3.2510	3.2510	-0.1446	24.98	0.21	-0.050			
0.9701	62089.45	3.2500	3.2504	-0.1442	24.98	0.21	-0.050			
0.9703	62098.83	3.2490	3.2493	-0.1440	24.98	0.21	-0.050			
0.9704	62108.17	3.2480	3.2480	-0.1431	24.98	0.21	-0.050			
0.9706	62117.31	3.2470	3.2467	-0.1425	24.99	0.22	-0.050			
0.9707	62126.40	3.2460	3.2460	-0.1418	24.99	0.22	-0.050			
0.9709	62135.31	3.2450	3.2450	-0.1409	25.00	0.23	-0.050			
0.9710	62144.32	3.2440	3.2439	-0.1404	25.00	0.23	-0.050			
0.9711	62153.13	3.2430	3.2428	-0.1403	25.01	0.24	-0.050			
0.9713	62162.09	3.2420	3.2421	-0.1399	25.01	0.24	-0.050			
0.9714	62171.01	3.2410	3.2411	-0.1395	25.01	0.24	-0.050			
0.9716	62179.92	3.2400	3.2402	-0.1391	25.01	0.24	-0.050			
0.9717	62188.87	3.2390	3.2391	-0.1385	25.01	0.24	-0.050			
0.9718	62197.72	3.2380	3.2380	-0.1381	25.01	0.24	-0.050			
0.9720	62206.56	3.2370	3.2371	-0.1377	25.01	0.24	-0.050			
0.9721	62215.35	3.2360	3.2361	-0.1372	25.01	0.24	-0.050			
0.9723	62224.12	3.2350	3.2351	-0.1368	25.01	0.24	-0.050			
0.9724	62232.76	3.2340	3.2338	-0.1366	25.01	0.24	-0.050			
0.9725	62241.49	3.2330	3.2328	-0.1362	25.01	0.24	-0.050			
0.9727	62250.16	3.2320	3.2320	-0.1358	25.01	0.24	-0.050			
0.9728	62258.85	3.2310	3.2311	-0.1355	25.01	0.24	-0.050			
0.9729	62267.51	3.2300	3.2301	-0.1351	25.01	0.24	-0.050			
0.9731	62276.35	3.2290	3.2291	-0.1341	25.01	0.24	-0.050			
0.9732	62284.87	3.2280	3.2280	-0.1334	25.01	0.24	-0.050			
0.9733	62293.39	3.2270	3.2270	-0.1329	25.01	0.24	-0.050			
0.9735	62301.88	3.2260	3.2260	-0.1324	25.01	0.24	-0.050			
0.9736	62310.34	3.2250	3.2250	-0.1319	25.01	0.24	-0.050			
0.9737	62318.68	3.2240	3.2240	-0.1318	25.01	0.24	-0.050			
0.9739	62327.35	3.2230	3.2229	-0.1319	25.01	0.24	-0.050			
0.9740	62335.78	3.2220	3.2220	-0.1313	25.01	0.24	-0.050			
0.9741	62344.16	3.2210	3.2210	-0.1307	25.01	0.24	-0.050			
0.9743	62352.41	3.2200	3.2201	-0.1305	25.01	0.24	-0.050			
0.9744	62360.57	3.2190	3.2191	-0.1294	25.01	0.24	-0.050			
0.9745	62368.84	3.2180	3.2182	-0.1290	25.01	0.24	-0.050			
0.9746	62377.09	3.2170	3.2169	-0.1287	25.01	0.24	-0.050			
0.9748	62385.31	3.2160	3.2159	-0.1283	25.01	0.24	-0.050			
0.9749	62393.51	3.2150	3.2151	-0.1280	25.01	0.24	-0.050			
0.9750	62401.57	3.2140	3.2140	-0.1279	25.02	0.25	-0.050			
0.9752	62409.74	3.2130	3.2128	-0.1276	25.02	0.25	-0.050			
0.9753	62417.90	3.2120	3.2119	-0.1274	25.02	0.25	-0.050			
0.9754	62426.05	3.2110	3.2110	-0.1271	25.02	0.25	-0.050			
0.9755	62434.18	3.2100	3.2100	-0.1269	25.02	0.25	-0.050			
0.9757	62442.33	3.2090	3.2091	-0.1257	25.02	0.25	-0.050			
0.9758	62450.37	3.2080	3.2082	-0.1254	25.02	0.25	-0.050			
0.9759	62458.38	3.2070	3.2069	-0.1251	25.02	0.25	-0.050			
0.9760	62466.38	3.2060	3.2058	-0.1248	25.02	0.25	-0.050			
0.9762	62474.36	3.2050	3.2049	-0.1245	25.02	0.25	-0.050			
0.9763	62482.83	3.2040	3.2040	-0.1243	25.02	0.25	-0.050			
0.9764	62490.76	3.2030	3.2031	-0.1237	25.02	0.25	-0.050			
0.9765	62498.66	3.2020	3.2020	-0.1230	25.02	0.25	-0.050			
0.9767	62506.50	3.2010	3.2009	-0.1223	25.02	0.25	-0.050			
0.9768	62514.29	3.2000	3.1999	-0.1215	25.02	0.25	-0.050			
0.9769	62521.84	3.1990	3.1991	-0.1213	25.02	0.25	-0.050			
0.9770	62529.59	3.1980	3.1984	-0.1208	25.02	0.25	-0.050			
0.9771	62537.30	3.1970	3.1973	-0.1202	25.02	0.25	-0.050			
0.9773	62544.98	3.1960	3.1961	-0.1197	25.02	0.25	-0.050			
0.9774	62552.63	3.1950	3.1948	-0.1192	25.02	0.25	-0.050			
0.9775	62560.04	3.1940	3.1939	-0.1191	25.03	0.26	-0.050			
0.9776	62567.65	3.1930	3.1931	-0.1187	25.03	0.26	-0.050			
0.9777	62575.23	3.1920	3.1918	-0.1184	25.03	0.26	-0.050			
0.9779	62582.80	3.1910	3.1912	-0.1180	25.03	0.26	-0.050			
0.9780	62590.34	3.1900	3.1899	-0.1176	25.03	0.26	-0.050			
0.9781	62597.44	3.1890	3.1889	-0.1168	25.03	0.26	-0.050			
0.9782	62605.05	3.1880	3.1881	-0.1164	25.03	0.26	-0.050			
0.9783	62612.49	3.1870	3.1870	-0.1163	25.02	0.25	-0.050			
0.9784	62619.93	3.1860	3.1858	-0.1161	25.02	0.25	-0.050			
0.9786	62627.35	3.1850	3.1850	-0.1159	25.02	0.25	-0.050			
0.9787	62634.83	3.1840	3.1841	-0.1158	25.02	0.25	-0.050			
0.9788	62642.12	3.1830	3.1830	-0.1157	25.02	0.25	-0.050			
0.9789	62649.51	3.1820	3.1819	-0.1155	25.02	0.25	-0.050			
0.9790	62656.90	3.1810	3.1809	-0.1154	25.02	0.25	-0.050			
0.9791	62664.28	3.1800	3.1800	-0.1152	25.03	0.26	-0.050			
0.9792	62671.69	3.1790	3.1792	-0.1151	25.03	0.26	-0.050			
0.9794	62679.05	3.1780	3.1782	-0.1149	25.03	0.26	-0.050			
0.9795	62686.40	3.1770	3.1768	-0.1148	25.03	0.26	-0.050			
0.9796	62693.74	3.1760	3.1760	-0.1146	25.03	0.26	-0.050			
0.9797	62701.22	3.1750	3.1748	-0.1134	25.03	0.26	-0.050			
0.9798	62708.58	3.1740	3.1740	-0.1133	25.03	0.26	-0.050			
0.9799	62715.82	3.1730	3.1731	-0.1128	25.03	0.26	-0.050			
0.9800	62723.02	3.1720	3.1719	-0.1124	25.02	0.25	-0.050			
0.9802	62730.15	3.1710	3.1709	-0.1120	25.02	0.25	-0.050			
0.9803	62737.31	3.1700	3.1701	-0.1116	25.02	0.25	-0.050			
0.9804	62744.44	3.1690	3.1691	-0.1112	25.02	0.25	-0.050			
0.9805	62751.62	3.1680	3.1679	-0.1109	25.02	0.25	-0.050			
0.9806	62758.70	3.1670	3.1668	-0.1105	25.02	0.25	-0.050			
0.9807	62765.76	3.1660	3.1657	-0.1100	25.02	0.25	-0.050	0.466	0.709	
0.9808	62772.84	3.1650	3.1651	-0.1094	25.03	0.26	-0.050			
0.9809	62779.83	3.1640	3.1639	-0.1089	25.03	0.26	-0.050			
0.9810	62786.89	3.1630	3.1629	-0.1087	25.03	0.26	-0.050			
0.9812	62793.83	3.1620	3.1621	-0.1081	25.03	0.26	-0.050			
0.9813	62800.73	3.1610	3.1609	-0.1075	25.03	0.26	-0.050			
0.9814	62807.46	3.1600	3.1597	-0.1073	25.03	0.26	-0.050			
0.9815	62814.31	3.1590	3.1590	-0.1068	25.03	0.26	-0.050			
0.9816	62821.14	3.1580	3.1581	-0.1063	25.03	0.26	-0.050			
0.9817	62827.93	3.1570	3.1569	-0.1058	25.02	0.25	-0.050			
0.9818	62834.68	3.1560	3.1559	-0.1054	25.02	0.25	-0.050			
0.9819	62841.03	3.1550	3.1550	-0.1046	25.02	0.25	-0.050			
0.9820	62847.82	3.1540	3.1542	-0.1042	25.02	0.25	-0.050			
0.9821	62854.48	3.1530	3.1531	-0.1039	25.02	0.25	-0.050			
0.9822	62861.12	3.1520	3.1519	-0.1036	25.02	0.25	-0.050			
0.9823	62867.91	3.1510	3.1510	-0.1037	25.02	0.25	-0.050			
0.9824	62874.53	3.1500	3.1501	-0.1032	25.02	0.25	-0.050			
0.9825	62881.12	3.1490	3.1490	-0.1028	25.02	0.25	-0.050			
0.9826	62887.69	3.1480	3.1479	-0.1023	25.02	0.25	-0.050			
0.9827	62893.86	3.1470	3.1469	-0.1032	25.02	0.25	-0.050			
0.9828	62900.46	3.1460	3.1461	-0.1030	25.02	0.25	-0.050			
0.9829	62906.63	3.1450	3.1452	-0.1021	25.02	0.25	-0.050			
0.9830	62913.17	3.1440	3.1441	-0.1022	25.02	0.25	-0.050			
0.9831	62919.71	3.1430	3.1430	-0.1023	25.02	0.25	-0.050			
0.9832	62926.26	3.1420	3.1419	-0.1023	25.02	0.25	-0.050			
0.9833	62933.27	3.1410	3.1409	-0.1010	25.03	0.26	-0.050			
0.9834	62939.91	3.1400	3.1398	-0.1012	25.03	0.26	-0.050			
0.9835	62946.38	3.1390	3.1388	-0.1008	25.03	0.26	-0.050			
0.9836	62952.82	3.1380	3.1378	-0.1005	25.03	0.26	-0.050			
0.9837	62959.24	3.1370	3.1369	-0.1001	25.03	0.26	-0.050			
0.9838	62965.63	3.1360	3.1359	-0.0997	25.03	0.26	-0.050			
0.9839	62972.03	3.1350	3.1351	-0.0993	25.03	0.26	-0.050			
0.9840	62978.52	3.1340	3.1344	-0.0993	25.03	0.26	-0.050			
0.9841	62984.86	3.1330	3.1335	-0.0988	25.02	0.25	-0.050			
0.9842	62991.17	3.1320	3.1323	-0.0983	25.02	0.25	-0.050			
0.9843	62997.45	3.1310	3.1310	-0.0979	25.02	0.25	-0.050			
0.9844	63003.70	3.1300	3.1299	-0.0974	25.02	0.25	-0.050			
0.9845	63009.78	3.1290	3.1292	-0.0973	25.02	0.25	-0.050			
0.9846	63015.99	3.1280	3.1280	-0.0969	25.02	0.25	-0.050			
0.9847	63022.31	3.1270	3.1269	-0.0968	25.02	0.25	-0.050			
0.9848	63028.49	3.1260	3.1259	-0.0964	25.02	0.25	-0.050			
0.9849	63034.65	3.1250	3.1248	-0.0959	25.02	0.25	-0.050			
0.9850	63040.77	3.1240	3.1239	-0.0955	25.02	0.25	-0.050			
0.9851	63046.87	3.1230	3.1228	-0.0950	25.02	0.25	-0.050			
0.9852	63052.77	3.1220	3.1218	-0.0951	25.02	0.25	-0.050			
0.9853	63058.38	3.1210	3.1210	-0.0933	25.02	0.25	-0.050			
0.9854	63064.35	3.1200	3.1202	-0.0933	25.02	0.25	-0.050			
0.9855	63070.32	3.1190	3.1191	-0.0932	25.02	0.25	-0.050			
0.9856	63076.28	3.1180	3.1180	-0.0931	25.02	0.25	-0.050			
0.9857	63082.24	3.1170	3.1170	-0.0931	25.02	0.25	-0.050			
0.9858	63088.19	3.1160	3.1160	-0.0930	25.02	0.25	-0.050			
0.9859	63094.53	3.1150	3.1149	-0.0933	25.02	0.25	-0.050			
0.9859	63100.56	3.1140	3.1139	-0.0928	25.02	0.25	-0.050			
0.9860	63106.49	3.1130	3.1129	-0.0925	25.02	0.25	-0.050			
0.9861	63112.40	3.1120	3.1120	-0.0921	25.02	0.25	-0.050			
0.9862	63118.28	3.1110	3.1112	-0.0917	25.02	0.25	-0.050			
0.9863	63124.14	3.1100	3.1101	-0.0914	25.02	0.25	-0.050			
0.9864	63130.01	3.1090	3.1090	-0.0910	25.02	0.25	-0.050			
0.9865	63135.57	3.1080	3.1080	-0.0910	25.02	0.25	-0.050			
0.9866	63141.38	3.1070	3.1069	-0.0908	25.02	0.25	-0.050			
0.9867	63147.19	3.1060	3.1059	-0.0906	25.02	0.25	-0.050			
0.9868	63152.98	3.1050	3.1049	-0.0904	25.02	0.25	-0.050			
0.9869	63158.76	3.1040	3.1040	-0.0901	25.02	0.25	-0.050			
0.9869	63164.52	3.1030	3.1031	-0.0899	25.02	0.25	-0.050			
0.9870	63170.12	3.1020	3.1023	-0.0896	25.02	0.25	-0.050			
0.9871	63176.06	3.1010	3.1010	-0.0891	25.02	0.25	-0.050			
0.9872	63181.75	3.1000	3.0999	-0.0888	25.02	0.25	-0.050			
0.9873	63187.43	3.0990	3.0988	-0.0886	25.02	0.25	-0.050			
0.9874	63193.09	3.0980	3.0979	-0.0883	25.02	0.25	-0.050			
0.9875	63198.73	3.0970	3.0969	-0.0880	25.01	0.24	-0.050			
0.9876	63204.35	3.0960	3.0960	-0.0878	25.01	0.24	-0.050			
0.9877	63209.96	3.0950	3.0950	-0.0875	25.01	0.24	-0.050			
0.9877	63215.62	3.0940	3.0941	-0.0872	25.01	0.24	-0.050			
0.9878	63221.19	3.0930	3.0934	-0.0869	25.01	0.24	-0.050			
0.9879	63226.74	3.0920	3.0922	-0.0865	25.01	0.24	-0.050			
0.9880	63232.27	3.0910	3.0910	-0.0862	25.01	0.24	-0.050			
0.9881	63237.78	3.0900	3.0900	-0.0859	25.00	0.23	-0.050			
0.9882	63243.14	3.0890	3.0890	-0.0860	25.00	0.23	-0.050			
0.9883	63248.68	3.0880	3.0879	-0.0858	25.00	0.23	-0.050			
0.9883	63254.16	3.0870	3.0869	-0.0856	25.00	0.23	-0.050			
0.9884	63259.63	3.0860	3.0859	-0.0853	25.00	0.23	-0.050			
0.9885	63265.08	3.0850	3.0849	-0.0850	24.99	0.22	-0.050			
0.9886	63270.52	3.0840	3.0839	-0.0848	24.99	0.22	-0.050			
0.9887	63275.93	3.0830	3.0831	-0.0845	24.99	0.22	-0.050			
0.9888	63281.32	3.0820	3.0820	-0.0843	24.99	0.22	-0.050			
0.9889	63286.56	3.0810	3.0810	-0.0835	24.99	0.22	-0.050			
0.9889	63291.90	3.0800	3.0800	-0.0834	24.99	0.22	-0.050			
0.9890	63297.23	3.0790	3.0790	-0.0832	24.99	0.22	-0.050			
0.9891	63302.55	3.0780	3.0780	-0.0830	24.98	0.21	-0.050			
0.9892	63307.86	3.0770	3.0770	-0.0828	24.98	0.21	-0.050			
0.9893	63313.15	3.0760	3.0760	-0.0827	24.98	0.21	-0.050			
0.9894	63318.44	3.0750	3.0751	-0.0825	24.98	0.21	-0.050			
0.9894	63323.97	3.0740	3.0740	-0.0823	24.98	0.21	-0.050			
0.9895	63329.22	3.0730	3.0733	-0.0819	24.98	0.21	-0.050			
0.9896	63334.46	3.0720	3.0721	-0.0816	24.98	0.21	-0.050			
0.9897	63339.67	3.0710	3.0710	-0.0812	24.98	0.21	-0.050			
0.9898	63344.85	3.0700	3.0699	-0.0809	24.98	0.21	-0.050			
0.9898	63350.22	3.0690	3.0688	-0.0807	24.98	0.21	-0.050			
0.9899	63354.82	3.0680	3.0679	-0.0810	24.98	0.21	-0.050			
0.9900	63360.00	3.0670	3.0669	-0.0809	24.98	0.21	-0.050			
0.9901	63365.18	3.0660	3.0660	-0.0808	24.98	0.21	-0.050			
0.9902	63370.35	3.0650	3.0650	-0.0807	24.98	0.21	-0.050			
0.9902	63375.51	3.0640	3.0640	-0.0806	24.98	0.21	-0.050			
0.9903	63380.66	3.0630	3.0631	-0.0805	24.98	0.21	-0.050			
0.9904	63385.44	3.0620	3.0622	-0.0800	24.98	0.21	-0.050			
0.9905	63391.19	3.0610	3.0608	-0.0791	24.98	0.21	-0.050			
0.9906	63396.24	3.0600	3.0599	-0.0788	24.98	0.21	-0.050			
0.9906	63401.27	3.0590	3.0589	-0.0785	24.98	0.21	-0.050			
0.9907	63406.28	3.0580	3.0578	-0.0782	24.98	0.21	-0.050			
0.9908	63411.27	3.0570	3.0568	-0.0779	24.97	0.20	-0.050			
0.9909	63416.25	3.0560	3.0560	-0.0776	24.97	0.20	-0.050			
0.9910	63421.20	3.0550	3.0552	-0.0773	24.97	0.20	-0.050			
0.9910	63426.57	3.0540	3.0542	-0.0772	24.97	0.20	-0.050			
0.9911	63431.25	3.0530	3.0533	-0.0771	24.97	0.20	-0.050			
0.9912	63436.17	3.0520	3.0526	-0.0767	24.97	0.20	-0.050			
0.9913	63441.07	3.0510	3.0514	-0.0763	24.97	0.20	-0.050			
0.9913	63445.94	3.0500	3.0502	-0.0759	24.97	0.20	-0.050			
0.9914	63450.79	3.0490	3.0487	-0.0756	24.97	0.20	-0.050			
0.9915	63455.86	3.0480	3.0476	-0.0755	24.97	0.20	-0.050			
0.9916	63460.67	3.0470	3.0466	-0.0749	24.97	0.20	-0.050			
0.9916	63465.00	3.0460	3.0458	-0.0752	24.96	0.19	-0.050			
0.9917	63469.81	3.0450	3.0449	-0.0749	24.96	0.19	-0.050			
0.9918	63474.59	3.0440	3.0439	-0.0746	24.96	0.19	-0.050			
0.9919	63479.36	3.0430	3.0428	-0.0744	24.96	0.19	-0.050			
0.9919	63484.11	3.0420	3.0419	-0.0741	24.96	0.19	-0.050			
0.9920	63488.14	3.0410	3.0412	-0.0730	24.96	0.19	-0.050			
0.9921	63492.82	3.0400	3.0401	-0.0731	24.96	0.19	-0.050			
0.9921	63497.50	3.0390	3.0390	-0.0732	24.96	0.19	-0.050			
0.9922	63502.50	3.0380	3.0379	-0.0726	24.96	0.19	-0.050			
0.9923	63507.14	3.0370	3.0369	-0.0725	24.96	0.19	-0.050			
0.9924	63511.78	3.0360	3.0360	-0.0724	24.96	0.19	-0.050			
0.9924	63516.42	3.0350	3.0350	-0.0724	24.96	0.19	-0.050			
0.9925	63521.04	3.0340	3.0340	-0.0723	24.96	0.19	-0.050			
0.9926	63526.01	3.0330	3.0331	-0.0727	24.96	0.19	-0.050			
0.9927	63530.65	3.0320	3.0320	-0.0724	24.96	0.19	-0.050			
0.9927	63535.28	3.0310	3.0310	-0.0722	24.96	0.19	-0.050			
0.9928	63539.85	3.0300	3.0302	-0.0720	24.96	0.19	-0.050			
0.9929	63544.45	3.0290	3.0292	-0.0718	24.96	0.19	-0.050			
0.9930	63549.04	3.0280	3.0281	-0.0716	24.96	0.19	-0.050			
0.9930	63553.62	3.0270	3.0270	-0.0714	24.96	0.19	-0.050			
0.9931	63558.23	3.0260	3.0259	-0.0712	24.95	0.18	-0.050			
0.9932	63562.78	3.0250	3.0249	-0.0710	24.95	0.18	-0.050			
0.9932	63567.31	3.0240	3.0239	-0.0708	24.95	0.18	-0.050			
0.9933	63571.83	3.0230	3.0229	-0.0705	24.95	0.18	-0.050			
0.9934	63576.29	3.0220	3.0219	-0.0704	24.95	0.18	-0.050			
0.9934	63580.78	3.0210	3.0210	-0.0702	24.95	0.18	-0.050			
0.9935	63585.27	3.0200	3.0200	-0.0700	24.94	0.17	-0.050			
0.9936	63589.74	3.0190	3.0190	-0.0697	24.94	0.17	-0.050			
0.9937	63594.08	3.0180	3.0180	-0.0693	24.94	0.17	-0.050			
0.9937	63598.51	3.0170	3.0170	-0.0692	24.94	0.17	-0.050			
0.9938	63602.93	3.0160	3.0160	-0.0690	24.94	0.17	-0.050			
0.9939	63607.34	3.0150	3.0150	-0.0689	24.94	0.17	-0.050			
0.9939	63611.75	3.0140	3.0140	-0.0687	24.94	0.17	-0.050			
0.9940	63616.14	3.0130	3.0130	-0.0686	24.94	0.17	-0.050			
0.9941	63620.53	3.0120	3.0120	-0.0684	24.94	0.17	-0.050			
0.9941	63624.90	3.0110	3.0111	-0.0683	24.94	0.17	-0.050			
0.9942	63629.36	3.0100	3.0100	-0.0680	24.94	0.17	-0.050			
0.9943	63633.70	3.0090	3.0090	-0.0677	24.94	0.17	-0.050			
0.9943	63638.03	3.0080	3.0080	-0.0675	24.94	0.17	-0.050			
0.9944	63642.34	3.0070	3.0070	-0.0673	24.94	0.17	-0.050			
0.9945	63646.64	3.0060	3.0060	-0.0670	24.94	0.17	-0.050			
0.9945	63650.92	3.0050	3.0051	-0.0668	24.94	0.17	-0.050			
