Ah_balance (normalized)	Ah_balance (mAh)	Voltage - fit (V)	Voltage -  interpolate (V)	dQ/dV (1/V)	Temperature (°C)	Temperature - diff (°C)	Current (C)	R_DC 0ms (mOhm)	R_DC 50ms (mOhm)	R_DC 50 ms PEC (mOhm)
0.0003	16.78	4.1800	4.1796	-0.2805	23.88	0.00	-0.050			
0.0006	35.42	4.1790	4.1788	-0.3020	23.87	-0.01	-0.050			
0.0009	55.75	4.1780	4.1775	-0.3259	23.87	-0.01	-0.050			
0.0012	78.25	4.1770	4.1769	-0.3503	23.86	-0.02	-0.050			
0.0016	102.12	4.1760	4.1758	-0.3701	23.85	-0.03	-0.050			
0.0020	127.26	4.1750	4.1748	-0.3870	23.84	-0.04	-0.050			
0.0024	152.48	4.1740	4.1741	-0.4013	23.84	-0.04	-0.050			
0.0028	179.77	4.1730	4.1729	-0.4143	23.84	-0.04	-0.050			
0.0032	207.42	4.1720	4.1720	-0.4256	23.83	-0.05	-0.050			
0.0037	235.88	4.1710	4.1711	-0.4353	23.82	-0.06	-0.050			
0.0041	264.07	4.1700	4.1700	-0.4457	23.82	-0.06	-0.050			
0.0046	293.50	4.1690	4.1689	-0.4534	23.82	-0.06	-0.050			
0.0051	323.23	4.1680	4.1682	-0.4607	23.81	-0.07	-0.050			
0.0056	356.33	4.1670	4.1671	-0.4723	23.80	-0.08	-0.050			
0.0061	387.31	4.1660	4.1660	-0.4787	23.80	-0.08	-0.050			
0.0065	418.17	4.1650	4.1650	-0.4830	23.79	-0.09	-0.050			
0.0070	449.68	4.1640	4.1640	-0.4885	23.79	-0.09	-0.050			
0.0075	481.39	4.1630	4.1630	-0.4924	23.79	-0.09	-0.050			
0.0080	513.11	4.1620	4.1620	-0.4956	23.79	-0.09	-0.050			
0.0085	545.11	4.1610	4.1610	-0.4989	23.79	-0.09	-0.050			
0.0090	577.13	4.1600	4.1600	-0.5026	23.79	-0.09	-0.050			
0.0095	609.30	4.1590	4.1590	-0.5062	23.79	-0.09	-0.050			
0.0100	641.55	4.1580	4.1579	-0.5105	23.79	-0.09	-0.050			
0.0105	674.14	4.1570	4.1571	-0.5136	23.79	-0.09	-0.050			
0.0111	707.22	4.1560	4.1560	-0.5178	23.79	-0.09	-0.050			
0.0116	740.59	4.1550	4.1551	-0.5208	23.78	-0.10	-0.050			
0.0121	774.28	4.1540	4.1541	-0.5235	23.78	-0.10	-0.050			
0.0126	808.42	4.1530	4.1529	-0.5256	23.78	-0.10	-0.050			
0.0132	842.30	4.1520	4.1519	-0.5288	23.78	-0.10	-0.050			
0.0137	876.15	4.1510	4.1509	-0.5316	23.79	-0.09	-0.050			
0.0142	910.32	4.1500	4.1500	-0.5339	23.78	-0.10	-0.050			
0.0148	944.79	4.1490	4.1491	-0.5366	23.78	-0.10	-0.050			
0.0153	979.27	4.1480	4.1480	-0.5390	23.78	-0.10	-0.050			
0.0158	1013.64	4.1470	4.1472	-0.5421	23.78	-0.10	-0.050			
0.0164	1048.34	4.1460	4.1461	-0.5452	23.78	-0.10	-0.050			
0.0169	1083.41	4.1450	4.1451	-0.5474	23.77	-0.11	-0.050			
0.0175	1118.43	4.1440	4.1439	-0.5503	23.76	-0.12	-0.050			
0.0180	1153.57	4.1430	4.1431	-0.5538	23.76	-0.12	-0.050			
0.0186	1189.01	4.1420	4.1416	-0.5572	23.76	-0.12	-0.050			
0.0191	1224.72	4.1410	4.1410	-0.5596	23.75	-0.13	-0.050			
0.0197	1260.53	4.1400	4.1400	-0.5619	23.75	-0.13	-0.050			
0.0203	1296.40	4.1390	4.1391	-0.5641	23.75	-0.13	-0.050	0.528	0.748	
0.0208	1332.41	4.1380	4.1379	-0.5671	23.74	-0.14	-0.050			
0.0214	1368.60	4.1370	4.1371	-0.5707	23.74	-0.14	-0.050			
0.0220	1405.56	4.1360	4.1360	-0.5736	23.74	-0.14	-0.050			
0.0225	1442.85	4.1350	4.1351	-0.5772	23.73	-0.15	-0.050			
0.0231	1480.32	4.1340	4.1340	-0.5803	23.73	-0.15	-0.050			
0.0237	1517.81	4.1330	4.1330	-0.5833	23.74	-0.14	-0.050			
0.0243	1555.58	4.1320	4.1320	-0.5855	23.73	-0.15	-0.050			
0.0249	1592.96	4.1310	4.1310	-0.5869	23.73	-0.15	-0.050			
0.0255	1630.71	4.1300	4.1300	-0.5891	23.73	-0.15	-0.050			
0.0261	1668.62	4.1290	4.1290	-0.5914	23.74	-0.14	-0.050			
0.0267	1706.54	4.1280	4.1281	-0.5929	23.73	-0.15	-0.050			
0.0273	1744.37	4.1270	4.1271	-0.5953	23.73	-0.15	-0.050			
0.0279	1782.52	4.1260	4.1261	-0.5964	23.74	-0.14	-0.050			
0.0285	1820.80	4.1250	4.1250	-0.5988	23.73	-0.15	-0.050			
0.0291	1859.80	4.1240	4.1240	-0.5989	23.74	-0.14	-0.050			
0.0297	1897.73	4.1230	4.1228	-0.6006	23.74	-0.14	-0.050			
0.0303	1936.28	4.1220	4.1221	-0.6015	23.74	-0.14	-0.050			
0.0309	1974.87	4.1210	4.1209	-0.6035	23.74	-0.14	-0.050			
0.0315	2013.61	4.1200	4.1199	-0.6055	23.74	-0.14	-0.050			
0.0321	2052.24	4.1190	4.1190	-0.6069	23.74	-0.14	-0.050			
0.0327	2090.94	4.1180	4.1180	-0.6083	23.74	-0.14	-0.050			
0.0333	2130.05	4.1170	4.1171	-0.6086	23.74	-0.14	-0.050			
0.0339	2169.07	4.1160	4.1159	-0.6103	23.74	-0.14	-0.050			
0.0345	2208.46	4.1150	4.1151	-0.6125	23.73	-0.15	-0.050			
0.0351	2247.70	4.1140	4.1138	-0.6134	23.74	-0.14	-0.050			
0.0357	2286.76	4.1130	4.1130	-0.6155	23.73	-0.15	-0.050			
0.0363	2326.09	4.1120	4.1120	-0.6167	23.73	-0.15	-0.050			
0.0370	2365.71	4.1110	4.1111	-0.6180	23.73	-0.15	-0.050			
0.0376	2405.47	4.1100	4.1100	-0.6198	23.72	-0.16	-0.050			
0.0382	2445.02	4.1090	4.1091	-0.6205	23.73	-0.15	-0.050			
0.0388	2484.49	4.1080	4.1080	-0.6229	23.73	-0.15	-0.050			
0.0394	2524.24	4.1070	4.1070	-0.6253	23.72	-0.16	-0.050			
0.0401	2564.15	4.1060	4.1061	-0.6274	23.73	-0.15	-0.050	0.425	0.711	
0.0407	2604.98	4.1050	4.1051	-0.6284	23.72	-0.16	-0.050			
0.0413	2645.68	4.1040	4.1040	-0.6281	23.72	-0.16	-0.050			
0.0420	2686.08	4.1030	4.1031	-0.6307	23.72	-0.16	-0.050			
0.0426	2726.04	4.1020	4.1021	-0.6306	23.70	-0.18	-0.050			
0.0432	2766.49	4.1010	4.1010	-0.6333	23.70	-0.18	-0.050			
0.0439	2806.76	4.1000	4.1000	-0.6347	23.70	-0.18	-0.050			
0.0445	2847.29	4.0990	4.0990	-0.6370	23.70	-0.18	-0.050			
0.0451	2888.31	4.0980	4.0981	-0.6385	23.70	-0.18	-0.050			
0.0458	2929.51	4.0970	4.0970	-0.6397	23.69	-0.19	-0.050			
0.0464	2970.44	4.0960	4.0961	-0.6409	23.69	-0.19	-0.050			
0.0471	3011.54	4.0950	4.0949	-0.6422	23.70	-0.18	-0.050			
0.0477	3053.06	4.0940	4.0938	-0.6425	23.70	-0.18	-0.050			
0.0484	3094.72	4.0930	4.0930	-0.6418	23.69	-0.19	-0.050			
0.0490	3135.71	4.0920	4.0920	-0.6420	23.69	-0.19	-0.050			
0.0496	3177.41	4.0910	4.0910	-0.6420	23.69	-0.19	-0.050			
0.0503	3218.48	4.0900	4.0899	-0.6425	23.70	-0.18	-0.050			
0.0509	3259.08	4.0890	4.0891	-0.6440	23.70	-0.18	-0.050			
0.0516	3300.33	4.0880	4.0881	-0.6441	23.70	-0.18	-0.050			
0.0522	3341.11	4.0870	4.0870	-0.6449	23.70	-0.18	-0.050			
0.0528	3382.17	4.0860	4.0860	-0.6480	23.70	-0.18	-0.050			
0.0535	3423.87	4.0850	4.0851	-0.6497	23.70	-0.18	-0.050			
0.0542	3465.67	4.0840	4.0841	-0.6516	23.70	-0.18	-0.050			
0.0548	3506.25	4.0830	4.0829	-0.6510	23.70	-0.18	-0.050			
0.0554	3547.91	4.0820	4.0820	-0.6539	23.70	-0.18	-0.050			
0.0561	3590.03	4.0810	4.0808	-0.6535	23.69	-0.19	-0.050			
0.0567	3631.74	4.0800	4.0799	-0.6554	23.70	-0.18	-0.050			
0.0574	3673.68	4.0790	4.0790	-0.6576	23.69	-0.19	-0.050			
0.0581	3715.78	4.0780	4.0781	-0.6606	23.69	-0.19	-0.050			
0.0587	3758.42	4.0770	4.0770	-0.6639	23.68	-0.20	-0.050			
0.0594	3801.09	4.0760	4.0762	-0.6664	23.68	-0.20	-0.050			
0.0601	3844.50	4.0750	4.0751	-0.6668	23.68	-0.20	-0.050	0.266	0.531	
0.0607	3887.69	4.0740	4.0740	-0.6693	23.67	-0.21	-0.050			
0.0614	3930.97	4.0730	4.0729	-0.6719	23.66	-0.22	-0.050			
0.0621	3974.16	4.0720	4.0721	-0.6731	23.65	-0.23	-0.050			
0.0628	4017.32	4.0710	4.0709	-0.6718	23.66	-0.22	-0.050			
0.0634	4060.37	4.0700	4.0696	-0.6730	23.64	-0.24	-0.050			
0.0641	4103.03	4.0690	4.0690	-0.6721	23.64	-0.24	-0.050			
0.0648	4145.77	4.0680	4.0680	-0.6728	23.63	-0.25	-0.050			
0.0655	4189.14	4.0670	4.0671	-0.6744	23.62	-0.26	-0.050			
0.0661	4231.66	4.0660	4.0659	-0.6754	23.62	-0.26	-0.050			
0.0668	4275.17	4.0650	4.0650	-0.6752	23.61	-0.27	-0.050			
0.0675	4318.54	4.0640	4.0640	-0.6776	23.60	-0.28	-0.050			
0.0682	4361.95	4.0630	4.0631	-0.6778	23.60	-0.28	-0.050			
0.0688	4405.48	4.0620	4.0620	-0.6778	23.60	-0.28	-0.050			
0.0695	4449.38	4.0610	4.0608	-0.6784	23.60	-0.28	-0.050			
0.0702	4492.55	4.0600	4.0601	-0.6795	23.59	-0.29	-0.050			
0.0709	4535.65	4.0590	4.0589	-0.6795	23.58	-0.30	-0.050			
0.0715	4578.63	4.0580	4.0579	-0.6819	23.58	-0.30	-0.050			
0.0722	4622.35	4.0570	4.0570	-0.6831	23.58	-0.30	-0.050			
0.0729	4666.09	4.0560	4.0560	-0.6856	23.58	-0.30	-0.050			
0.0736	4710.11	4.0550	4.0552	-0.6878	23.58	-0.30	-0.050			
0.0743	4754.58	4.0540	4.0540	-0.6894	23.58	-0.30	-0.050			
0.0750	4798.43	4.0530	4.0531	-0.6892	23.58	-0.30	-0.050			
0.0757	4842.76	4.0520	4.0517	-0.6899	23.58	-0.30	-0.050			
0.0764	4887.45	4.0510	4.0509	-0.6905	23.58	-0.30	-0.050			
0.0771	4932.14	4.0500	4.0499	-0.6904	23.58	-0.30	-0.050			
0.0778	4976.54	4.0490	4.0490	-0.6881	23.58	-0.30	-0.050			
0.0784	5020.33	4.0480	4.0481	-0.6900	23.58	-0.30	-0.050			
0.0791	5064.16	4.0470	4.0472	-0.6915	23.58	-0.30	-0.050			
0.0798	5108.00	4.0460	4.0460	-0.6935	23.58	-0.30	-0.050	0.364	0.585	
0.0805	5152.48	4.0450	4.0452	-0.6940	23.57	-0.31	-0.050			
0.0812	5197.24	4.0440	4.0440	-0.6966	23.56	-0.32	-0.050			
0.0819	5241.38	4.0430	4.0432	-0.6971	23.57	-0.31	-0.050			
0.0826	5286.54	4.0420	4.0420	-0.6984	23.57	-0.31	-0.050			
0.0833	5331.70	4.0410	4.0410	-0.6974	23.56	-0.32	-0.050			
0.0840	5376.21	4.0400	4.0399	-0.6968	23.56	-0.32	-0.050			
0.0847	5420.45	4.0390	4.0386	-0.6960	23.56	-0.32	-0.050			
0.0854	5464.67	4.0380	4.0379	-0.6966	23.56	-0.32	-0.050			
0.0861	5509.43	4.0370	4.0371	-0.6981	23.56	-0.32	-0.050			
0.0868	5554.16	4.0360	4.0362	-0.6997	23.56	-0.32	-0.050			
0.0875	5598.76	4.0350	4.0350	-0.7009	23.56	-0.32	-0.050			
0.0882	5643.81	4.0340	4.0341	-0.7031	23.57	-0.31	-0.050			
0.0889	5689.03	4.0330	4.0331	-0.7053	23.57	-0.31	-0.050			
0.0896	5734.19	4.0320	4.0321	-0.7070	23.57	-0.31	-0.050			
0.0903	5779.70	4.0310	4.0310	-0.7081	23.58	-0.30	-0.050			
0.0910	5825.01	4.0300	4.0298	-0.7098	23.59	-0.29	-0.050			
0.0917	5870.48	4.0290	4.0290	-0.7104	23.60	-0.28	-0.050			
0.0924	5915.10	4.0280	4.0280	-0.7087	23.60	-0.28	-0.050			
0.0931	5960.00	4.0270	4.0271	-0.7095	23.60	-0.28	-0.050			
0.0938	6005.43	4.0260	4.0261	-0.7116	23.60	-0.28	-0.050			
0.0945	6051.18	4.0250	4.0251	-0.7138	23.60	-0.28	-0.050			
0.0953	6097.29	4.0240	4.0242	-0.7169	23.60	-0.28	-0.050			
0.0960	6143.30	4.0230	4.0230	-0.7177	23.60	-0.28	-0.050			
0.0967	6190.06	4.0220	4.0218	-0.7202	23.60	-0.28	-0.050			
0.0975	6236.83	4.0210	4.0211	-0.7225	23.60	-0.28	-0.050			
0.0982	6283.36	4.0200	4.0201	-0.7226	23.60	-0.28	-0.050			
0.0989	6329.29	4.0190	4.0190	-0.7220	23.60	-0.28	-0.050			
0.0996	6375.39	4.0180	4.0180	-0.7222	23.60	-0.28	-0.050			
0.1003	6421.90	4.0170	4.0170	-0.7207	23.60	-0.28	-0.050	0.361	0.618	
0.1011	6467.93	4.0160	4.0161	-0.7218	23.60	-0.28	-0.050			
0.1018	6513.67	4.0150	4.0151	-0.7231	23.60	-0.28	-0.050			
0.1025	6560.12	4.0140	4.0140	-0.7232	23.60	-0.28	-0.050			
0.1032	6606.41	4.0130	4.0130	-0.7238	23.60	-0.28	-0.050			
0.1039	6652.33	4.0120	4.0120	-0.7254	23.60	-0.28	-0.050			
0.1047	6698.77	4.0110	4.0109	-0.7262	23.60	-0.28	-0.050			
0.1054	6745.27	4.0100	4.0100	-0.7275	23.59	-0.29	-0.050			
0.1061	6791.92	4.0090	4.0091	-0.7274	23.59	-0.29	-0.050			
0.1068	6838.39	4.0080	4.0081	-0.7282	23.58	-0.30	-0.050			
0.1076	6885.33	4.0070	4.0070	-0.7286	23.58	-0.30	-0.050			
0.1083	6931.68	4.0060	4.0061	-0.7289	23.58	-0.30	-0.050			
0.1090	6978.50	4.0050	4.0051	-0.7297	23.58	-0.30	-0.050			
0.1098	7025.21	4.0040	4.0041	-0.7311	23.58	-0.30	-0.050			
0.1105	7072.10	4.0030	4.0027	-0.7320	23.59	-0.29	-0.050			
0.1112	7119.14	4.0020	4.0020	-0.7336	23.58	-0.30	-0.050			
0.1120	7166.17	4.0010	4.0009	-0.7340	23.58	-0.30	-0.050			
0.1127	7213.21	4.0000	4.0001	-0.7356	23.58	-0.30	-0.050			
0.1134	7260.41	3.9990	3.9990	-0.7365	23.57	-0.31	-0.050			
0.1142	7307.51	3.9980	3.9979	-0.7366	23.58	-0.30	-0.050			
0.1149	7354.73	3.9970	3.9970	-0.7376	23.58	-0.30	-0.050			
0.1157	7401.97	3.9960	3.9960	-0.7386	23.57	-0.31	-0.050			
0.1164	7448.59	3.9950	3.9950	-0.7388	23.56	-0.32	-0.050			
0.1171	7495.90	3.9940	3.9940	-0.7399	23.57	-0.31	-0.050			
0.1179	7543.50	3.9930	3.9929	-0.7416	23.58	-0.30	-0.050			
0.1186	7590.75	3.9920	3.9921	-0.7420	23.58	-0.30	-0.050			
0.1193	7638.09	3.9910	3.9909	-0.7431	23.58	-0.30	-0.050			
0.1201	7686.07	3.9900	3.9903	-0.7451	23.58	-0.30	-0.050	0.367	0.508	
0.1208	7733.78	3.9890	3.9889	-0.7474	23.57	-0.31	-0.050			
0.1216	7781.49	3.9880	3.9881	-0.7490	23.56	-0.32	-0.050			
0.1223	7829.43	3.9870	3.9871	-0.7501	23.56	-0.32	-0.050			
0.1231	7877.72	3.9860	3.9860	-0.7515	23.56	-0.32	-0.050			
0.1238	7925.71	3.9850	3.9851	-0.7521	23.56	-0.32	-0.050			
0.1246	7974.04	3.9840	3.9839	-0.7525	23.56	-0.32	-0.050			
0.1254	8022.44	3.9830	3.9830	-0.7535	23.56	-0.32	-0.050			
0.1261	8070.77	3.9820	3.9818	-0.7545	23.56	-0.32	-0.050			
0.1269	8119.07	3.9810	3.9810	-0.7552	23.56	-0.32	-0.050			
0.1276	8167.63	3.9800	3.9800	-0.7553	23.55	-0.33	-0.050			
0.1284	8216.09	3.9790	3.9791	-0.7555	23.56	-0.32	-0.050			
0.1291	8264.84	3.9780	3.9781	-0.7571	23.55	-0.33	-0.050			
0.1299	8313.09	3.9770	3.9770	-0.7581	23.54	-0.34	-0.050			
0.1306	8361.25	3.9760	3.9761	-0.7593	23.54	-0.34	-0.050			
0.1314	8409.73	3.9750	3.9750	-0.7602	23.54	-0.34	-0.050			
0.1322	8458.19	3.9740	3.9739	-0.7617	23.54	-0.34	-0.050			
0.1329	8506.80	3.9730	3.9731	-0.7632	23.54	-0.34	-0.050			
0.1337	8555.86	3.9720	3.9720	-0.7643	23.54	-0.34	-0.050			
0.1345	8605.07	3.9710	3.9710	-0.7638	23.54	-0.34	-0.050			
0.1352	8654.02	3.9700	3.9699	-0.7641	23.54	-0.34	-0.050			
0.1360	8702.84	3.9690	3.9689	-0.7643	23.54	-0.34	-0.050			
0.1367	8751.71	3.9680	3.9679	-0.7660	23.53	-0.35	-0.050			
0.1375	8801.05	3.9670	3.9669	-0.7664	23.54	-0.34	-0.050			
0.1383	8850.44	3.9660	3.9661	-0.7672	23.54	-0.34	-0.050			
0.1391	8899.55	3.9650	3.9651	-0.7685	23.54	-0.34	-0.050			
0.1398	8949.01	3.9640	3.9640	-0.7691	23.54	-0.34	-0.050	0.352	0.570	
0.1406	8998.33	3.9630	3.9630	-0.7701	23.54	-0.34	-0.050			
0.1414	9047.29	3.9620	3.9619	-0.7712	23.54	-0.34	-0.050			
0.1421	9096.73	3.9610	3.9612	-0.7714	23.54	-0.34	-0.050			
0.1429	9146.02	3.9600	3.9600	-0.7724	23.55	-0.33	-0.050			
0.1437	9195.33	3.9590	3.9589	-0.7723	23.55	-0.33	-0.050			
0.1444	9244.77	3.9580	3.9581	-0.7721	23.55	-0.33	-0.050			
0.1452	9293.87	3.9570	3.9569	-0.7721	23.56	-0.32	-0.050			
0.1460	9343.11	3.9560	3.9560	-0.7728	23.55	-0.33	-0.050			
0.1468	9392.68	3.9550	3.9551	-0.7743	23.56	-0.32	-0.050			
0.1475	9442.29	3.9540	3.9539	-0.7746	23.56	-0.32	-0.050			
0.1483	9491.98	3.9530	3.9530	-0.7753	23.56	-0.32	-0.050			
0.1491	9541.72	3.9520	3.9521	-0.7773	23.56	-0.32	-0.050			
0.1499	9592.03	3.9510	3.9510	-0.7784	23.56	-0.32	-0.050			
0.1507	9641.88	3.9500	3.9500	-0.7794	23.56	-0.32	-0.050			
0.1514	9691.53	3.9490	3.9489	-0.7797	23.56	-0.32	-0.050			
0.1522	9741.18	3.9480	3.9480	-0.7809	23.56	-0.32	-0.050			
0.1530	9791.19	3.9470	3.9469	-0.7814	23.55	-0.33	-0.050			
0.1538	9841.70	3.9460	3.9461	-0.7813	23.55	-0.33	-0.050			
0.1546	9891.33	3.9450	3.9450	-0.7815	23.54	-0.34	-0.050			
0.1553	9941.63	3.9440	3.9439	-0.7815	23.54	-0.34	-0.050			
0.1561	9991.81	3.9430	3.9428	-0.7823	23.54	-0.34	-0.050			
0.1569	10042.15	3.9420	3.9419	-0.7812	23.54	-0.34	-0.050			
0.1577	10092.32	3.9410	3.9409	-0.7811	23.54	-0.34	-0.050			
0.1585	10142.30	3.9400	3.9399	-0.7825	23.53	-0.35	-0.050			
0.1593	10192.38	3.9390	3.9389	-0.7820	23.52	-0.36	-0.050			
0.1600	10242.70	3.9380	3.9379	-0.7826	23.52	-0.36	-0.050	0.434	0.626	
0.1608	10292.33	3.9370	3.9370	-0.7827	23.52	-0.36	-0.050			
0.1616	10342.37	3.9360	3.9361	-0.7829	23.52	-0.36	-0.050			
0.1624	10392.48	3.9350	3.9350	-0.7830	23.52	-0.36	-0.050			
0.1632	10442.73	3.9340	3.9341	-0.7832	23.52	-0.36	-0.050			
0.1640	10492.80	3.9330	3.9329	-0.7824	23.52	-0.36	-0.050			
0.1647	10542.77	3.9320	3.9319	-0.7829	23.51	-0.37	-0.050			
0.1655	10592.49	3.9310	3.9307	-0.7835	23.51	-0.37	-0.050			
0.1663	10642.38	3.9300	3.9301	-0.7841	23.51	-0.37	-0.050			
0.1671	10692.55	3.9290	3.9291	-0.7844	23.52	-0.36	-0.050			
0.1679	10742.67	3.9280	3.9280	-0.7854	23.51	-0.37	-0.050			
0.1686	10793.10	3.9270	3.9270	-0.7861	23.52	-0.36	-0.050			
0.1694	10843.61	3.9260	3.9260	-0.7881	23.52	-0.36	-0.050			
0.1702	10894.04	3.9250	3.9249	-0.7900	23.52	-0.36	-0.050			
0.1710	10944.48	3.9240	3.9240	-0.7902	23.52	-0.36	-0.050			
0.1718	10995.34	3.9230	3.9228	-0.7918	23.52	-0.36	-0.050			
0.1726	11046.11	3.9220	3.9220	-0.7925	23.52	-0.36	-0.050			
0.1734	11096.79	3.9210	3.9211	-0.7932	23.52	-0.36	-0.050			
0.1742	11147.64	3.9200	3.9201	-0.7927	23.52	-0.36	-0.050			
0.1750	11198.38	3.9190	3.9189	-0.7926	23.53	-0.35	-0.050			
0.1758	11249.44	3.9180	3.9180	-0.7935	23.53	-0.35	-0.050			
0.1766	11300.42	3.9170	3.9169	-0.7939	23.53	-0.35	-0.050			
0.1774	11351.29	3.9160	3.9160	-0.7930	23.54	-0.34	-0.050			
0.1782	11402.46	3.9150	3.9151	-0.7935	23.54	-0.34	-0.050			
0.1790	11453.61	3.9140	3.9141	-0.7932	23.54	-0.34	-0.050			
0.1798	11504.79	3.9130	3.9129	-0.7928	23.54	-0.34	-0.050	0.337	0.545	
0.1806	11555.45	3.9120	3.9120	-0.7909	23.55	-0.33	-0.050			
0.1813	11605.96	3.9110	3.9110	-0.7894	23.56	-0.32	-0.050			
0.1821	11656.25	3.9100	3.9101	-0.7887	23.56	-0.32	-0.050			
0.1829	11706.63	3.9090	3.9089	-0.7886	23.56	-0.32	-0.050			
0.1837	11757.13	3.9080	3.9081	-0.7880	23.57	-0.31	-0.050			
0.1845	11807.20	3.9070	3.9070	-0.7872	23.58	-0.30	-0.050			
0.1853	11857.11	3.9060	3.9061	-0.7864	23.59	-0.29	-0.050			
0.1861	11907.39	3.9050	3.9050	-0.7855	23.60	-0.28	-0.050			
0.1868	11957.64	3.9040	3.9041	-0.7853	23.59	-0.29	-0.050			
0.1876	12007.72	3.9030	3.9029	-0.7854	23.60	-0.28	-0.050			
0.1884	12058.00	3.9020	3.9019	-0.7842	23.60	-0.28	-0.050			
0.1892	12108.22	3.9010	3.9010	-0.7849	23.60	-0.28	-0.050			
0.1900	12158.75	3.9000	3.9001	-0.7841	23.60	-0.28	-0.050			
0.1908	12209.04	3.8990	3.8990	-0.7844	23.60	-0.28	-0.050			
0.1916	12259.21	3.8980	3.8978	-0.7835	23.59	-0.29	-0.050			
0.1923	12310.08	3.8970	3.8968	-0.7803	23.58	-0.30	-0.050			
0.1931	12360.44	3.8960	3.8961	-0.7794	23.58	-0.30	-0.050			
0.1939	12409.99	3.8950	3.8950	-0.7793	23.58	-0.30	-0.050			
0.1947	12460.02	3.8940	3.8940	-0.7780	23.58	-0.30	-0.050			
0.1955	12509.62	3.8930	3.8930	-0.7776	23.58	-0.30	-0.050			
0.1962	12558.85	3.8920	3.8919	-0.7779	23.58	-0.30	-0.050			
0.1970	12608.45	3.8910	3.8910	-0.7771	23.58	-0.30	-0.050			
0.1978	12657.80	3.8900	3.8900	-0.7763	23.57	-0.31	-0.050			
0.1986	12707.34	3.8890	3.8890	-0.7751	23.56	-0.32	-0.050			
0.1993	12756.91	3.8880	3.8880	-0.7749	23.56	-0.32	-0.050			
0.2001	12806.18	3.8870	3.8871	-0.7747	23.56	-0.32	-0.050	0.540	0.839	
0.2009	12855.65	3.8860	3.8860	-0.7745	23.56	-0.32	-0.050			
0.2016	12905.47	3.8850	3.8851	-0.7739	23.56	-0.32	-0.050			
0.2024	12955.07	3.8840	3.8840	-0.7733	23.55	-0.33	-0.050			
0.2032	13004.90	3.8830	3.8831	-0.7722	23.55	-0.33	-0.050			
0.2040	13054.44	3.8820	3.8821	-0.7714	23.55	-0.33	-0.050			
0.2048	13104.41	3.8810	3.8810	-0.7703	23.55	-0.33	-0.050			
0.2055	13154.20	3.8800	3.8800	-0.7693	23.54	-0.34	-0.050			
0.2063	13203.73	3.8790	3.8790	-0.7672	23.54	-0.34	-0.050			
0.2071	13253.13	3.8780	3.8780	-0.7645	23.54	-0.34	-0.050			
0.2079	13302.96	3.8770	3.8770	-0.7610	23.53	-0.35	-0.050			
0.2086	13352.06	3.8760	3.8761	-0.7577	23.53	-0.35	-0.050			
0.2094	13399.75	3.8750	3.8749	-0.7519	23.53	-0.35	-0.050			
0.2101	13447.87	3.8740	3.8740	-0.7484	23.52	-0.36	-0.050			
0.2109	13495.56	3.8730	3.8731	-0.7446	23.52	-0.36	-0.050			
0.2116	13542.85	3.8720	3.8720	-0.7400	23.52	-0.36	-0.050			
0.2123	13590.21	3.8710	3.8711	-0.7368	23.52	-0.36	-0.050			
0.2131	13637.16	3.8700	3.8700	-0.7332	23.52	-0.36	-0.050			
0.2138	13683.96	3.8690	3.8690	-0.7288	23.52	-0.36	-0.050			
0.2145	13730.57	3.8680	3.8680	-0.7247	23.52	-0.36	-0.050			
0.2153	13776.37	3.8670	3.8669	-0.7199	23.50	-0.38	-0.050			
0.2160	13822.44	3.8660	3.8659	-0.7160	23.50	-0.38	-0.050			
0.2167	13868.23	3.8650	3.8650	-0.7119	23.50	-0.38	-0.050			
0.2174	13913.83	3.8640	3.8640	-0.7079	23.50	-0.38	-0.050			
0.2181	13958.84	3.8630	3.8630	-0.7034	23.50	-0.38	-0.050			
0.2188	14003.85	3.8620	3.8620	-0.6995	23.50	-0.38	-0.050			
0.2195	14048.52	3.8610	3.8611	-0.6955	23.49	-0.39	-0.050			
0.2202	14093.14	3.8600	3.8600	-0.6915	23.49	-0.39	-0.050	0.336	0.540	
0.2209	14137.29	3.8590	3.8590	-0.6868	23.49	-0.39	-0.050			
0.2216	14181.50	3.8580	3.8580	-0.6815	23.49	-0.39	-0.050			
0.2223	14225.39	3.8570	3.8569	-0.6772	23.49	-0.39	-0.050			
0.2229	14268.73	3.8560	3.8560	-0.6717	23.48	-0.40	-0.050			
0.2236	14311.22	3.8550	3.8550	-0.6658	23.49	-0.39	-0.050			
0.2243	14353.38	3.8540	3.8540	-0.6611	23.49	-0.39	-0.050			
0.2249	14395.76	3.8530	3.8530	-0.6550	23.50	-0.38	-0.050			
0.2256	14437.43	3.8520	3.8520	-0.6500	23.50	-0.38	-0.050			
0.2262	14478.84	3.8510	3.8510	-0.6452	23.50	-0.38	-0.050			
0.2269	14519.79	3.8500	3.8501	-0.6403	23.50	-0.38	-0.050			
0.2275	14560.84	3.8490	3.8490	-0.6359	23.50	-0.38	-0.050			
0.2281	14601.31	3.8480	3.8479	-0.6305	23.50	-0.38	-0.050			
0.2288	14641.40	3.8470	3.8470	-0.6252	23.50	-0.38	-0.050			
0.2294	14681.02	3.8460	3.8460	-0.6203	23.50	-0.38	-0.050			
0.2300	14720.65	3.8450	3.8450	-0.6156	23.50	-0.38	-0.050			
0.2306	14759.65	3.8440	3.8441	-0.6110	23.51	-0.37	-0.050			
0.2312	14798.49	3.8430	3.8429	-0.6062	23.52	-0.36	-0.050			
0.2318	14837.08	3.8420	3.8420	-0.6012	23.52	-0.36	-0.050			
0.2324	14875.35	3.8410	3.8410	-0.5969	23.52	-0.36	-0.050			
0.2330	14913.32	3.8400	3.8401	-0.5929	23.52	-0.36	-0.050			
0.2336	14951.10	3.8390	3.8391	-0.5894	23.52	-0.36	-0.050			
0.2342	14989.08	3.8380	3.8380	-0.5843	23.54	-0.34	-0.050			
0.2348	15026.38	3.8370	3.8369	-0.5804	23.54	-0.34	-0.050			
0.2354	15063.16	3.8360	3.8360	-0.5757	23.54	-0.34	-0.050			
0.2359	15099.84	3.8350	3.8350	-0.5713	23.54	-0.34	-0.050			
0.2365	15135.98	3.8340	3.8340	-0.5674	23.54	-0.34	-0.050			
0.2371	15171.97	3.8330	3.8331	-0.5642	23.54	-0.34	-0.050			
0.2376	15207.97	3.8320	3.8320	-0.5621	23.53	-0.35	-0.050			
0.2382	15243.39	3.8310	3.8310	-0.5579	23.54	-0.34	-0.050			
0.2387	15278.86	3.8300	3.8299	-0.5549	23.54	-0.34	-0.050			
0.2393	15314.04	3.8290	3.8291	-0.5525	23.54	-0.34	-0.050			
0.2398	15349.07	3.8280	3.8281	-0.5505	23.54	-0.34	-0.050			
0.2404	15384.08	3.8270	3.8270	-0.5480	23.54	-0.34	-0.050	0.523	0.796	
0.2409	15418.75	3.8260	3.8259	-0.5462	23.54	-0.34	-0.050			
0.2415	15453.37	3.8250	3.8250	-0.5442	23.54	-0.34	-0.050			
0.2420	15488.04	3.8240	3.8241	-0.5430	23.54	-0.34	-0.050			
0.2425	15522.53	3.8230	3.8229	-0.5429	23.54	-0.34	-0.050			
0.2431	15557.01	3.8220	3.8220	-0.5417	23.54	-0.34	-0.050			
0.2436	15591.62	3.8210	3.8211	-0.5413	23.54	-0.34	-0.050			
0.2442	15626.04	3.8200	3.8200	-0.5406	23.54	-0.34	-0.050			
0.2447	15660.54	3.8190	3.8190	-0.5404	23.54	-0.34	-0.050			
0.2452	15694.98	3.8180	3.8180	-0.5412	23.54	-0.34	-0.050			
0.2458	15729.70	3.8170	3.8170	-0.5426	23.54	-0.34	-0.050			
0.2463	15763.92	3.8160	3.8161	-0.5423	23.54	-0.34	-0.050			
0.2469	15798.50	3.8150	3.8149	-0.5438	23.54	-0.34	-0.050			
0.2474	15832.94	3.8140	3.8140	-0.5456	23.54	-0.34	-0.050			
0.2479	15867.52	3.8130	3.8131	-0.5470	23.54	-0.34	-0.050			
0.2485	15902.27	3.8120	3.8121	-0.5490	23.54	-0.34	-0.050			
0.2490	15937.29	3.8110	3.8110	-0.5512	23.54	-0.34	-0.050			
0.2496	15972.38	3.8100	3.8099	-0.5548	23.54	-0.34	-0.050			
0.2501	16007.63	3.8090	3.8089	-0.5575	23.54	-0.34	-0.050			
0.2507	16042.99	3.8080	3.8081	-0.5606	23.54	-0.34	-0.050			
0.2512	16079.19	3.8070	3.8070	-0.5640	23.54	-0.34	-0.050			
0.2518	16115.24	3.8060	3.8060	-0.5675	23.54	-0.34	-0.050			
0.2524	16151.44	3.8050	3.8050	-0.5721	23.55	-0.33	-0.050			
0.2529	16188.07	3.8040	3.8040	-0.5766	23.55	-0.33	-0.050			
0.2535	16224.97	3.8030	3.8030	-0.5809	23.54	-0.34	-0.050			
0.2541	16262.00	3.8020	3.8020	-0.5858	23.55	-0.33	-0.050			
0.2547	16299.80	3.8010	3.8010	-0.5912	23.56	-0.32	-0.050			
0.2553	16337.57	3.8000	3.8000	-0.5970	23.56	-0.32	-0.050			
0.2559	16375.88	3.7990	3.7990	-0.6019	23.55	-0.33	-0.050			
0.2565	16414.55	3.7980	3.7980	-0.6068	23.55	-0.33	-0.050			
0.2571	16453.38	3.7970	3.7970	-0.6119	23.55	-0.33	-0.050			
0.2577	16492.54	3.7960	3.7959	-0.6181	23.55	-0.33	-0.050			
0.2583	16532.27	3.7950	3.7950	-0.6237	23.54	-0.34	-0.050			
0.2589	16572.12	3.7940	3.7940	-0.6297	23.54	-0.34	-0.050			
0.2596	16612.60	3.7930	3.7929	-0.6352	23.54	-0.34	-0.050			
0.2602	16653.45	3.7920	3.7921	-0.6418	23.55	-0.33	-0.050	0.489	0.646	
0.2609	16694.73	3.7910	3.7910	-0.6476	23.54	-0.34	-0.050			
0.2615	16736.45	3.7900	3.7900	-0.6533	23.55	-0.33	-0.050			
0.2622	16778.19	3.7890	3.7890	-0.6594	23.55	-0.33	-0.050			
0.2628	16820.45	3.7880	3.7880	-0.6667	23.54	-0.34	-0.050			
0.2635	16862.94	3.7870	3.7869	-0.6744	23.54	-0.34	-0.050			
0.2642	16906.40	3.7860	3.7860	-0.6812	23.54	-0.34	-0.050			
0.2648	16950.15	3.7850	3.7850	-0.6888	23.53	-0.35	-0.050			
0.2655	16994.03	3.7840	3.7840	-0.6957	23.52	-0.36	-0.050			
0.2662	17038.80	3.7830	3.7830	-0.7032	23.52	-0.36	-0.050			
0.2669	17083.90	3.7820	3.7820	-0.7099	23.52	-0.36	-0.050			
0.2677	17129.84	3.7810	3.7810	-0.7167	23.51	-0.37	-0.050			
0.2684	17175.87	3.7800	3.7798	-0.7239	23.50	-0.38	-0.050			
0.2691	17222.47	3.7790	3.7789	-0.7321	23.50	-0.38	-0.050			
0.2698	17269.62	3.7780	3.7779	-0.7399	23.50	-0.38	-0.050			
0.2706	17316.97	3.7770	3.7771	-0.7480	23.49	-0.39	-0.050			
0.2713	17365.03	3.7760	3.7760	-0.7554	23.48	-0.40	-0.050			
0.2721	17413.63	3.7750	3.7751	-0.7629	23.48	-0.40	-0.050			
0.2729	17462.85	3.7740	3.7740	-0.7711	23.48	-0.40	-0.050			
0.2736	17512.52	3.7730	3.7730	-0.7785	23.48	-0.40	-0.050			
0.2744	17562.97	3.7720	3.7719	-0.7857	23.48	-0.40	-0.050			
0.2752	17613.45	3.7710	3.7709	-0.7929	23.48	-0.40	-0.050			
0.2760	17664.51	3.7700	3.7699	-0.8005	23.48	-0.40	-0.050			
0.2768	17715.78	3.7690	3.7690	-0.8071	23.48	-0.40	-0.050			
0.2776	17767.55	3.7680	3.7680	-0.8141	23.48	-0.40	-0.050			
0.2784	17820.06	3.7670	3.7671	-0.8202	23.48	-0.40	-0.050			
0.2793	17873.07	3.7660	3.7661	-0.8265	23.48	-0.40	-0.050			
0.2801	17926.61	3.7650	3.7650	-0.8336	23.48	-0.40	-0.050	0.472	0.602	
0.2809	17980.47	3.7640	3.7641	-0.8398	23.48	-0.40	-0.050			
0.2818	18034.25	3.7630	3.7630	-0.8468	23.48	-0.40	-0.050			
0.2826	18088.78	3.7620	3.7619	-0.8536	23.48	-0.40	-0.050			
0.2835	18143.73	3.7610	3.7611	-0.8599	23.48	-0.40	-0.050			
0.2844	18198.99	3.7600	3.7599	-0.8646	23.49	-0.39	-0.050			
0.2852	18254.33	3.7590	3.7590	-0.8696	23.48	-0.40	-0.050			
0.2861	18310.12	3.7580	3.7581	-0.8760	23.48	-0.40	-0.050			
0.2870	18366.55	3.7570	3.7569	-0.8811	23.49	-0.39	-0.050			
0.2879	18423.23	3.7560	3.7559	-0.8874	23.49	-0.39	-0.050			
0.2888	18480.42	3.7550	3.7549	-0.8925	23.50	-0.38	-0.050			
0.2897	18537.93	3.7540	3.7541	-0.8971	23.50	-0.38	-0.050			
0.2906	18595.79	3.7530	3.7530	-0.9024	23.50	-0.38	-0.050			
0.2915	18653.60	3.7520	3.7521	-0.9077	23.50	-0.38	-0.050			
0.2924	18711.44	3.7510	3.7510	-0.9134	23.50	-0.38	-0.050			
0.2933	18769.87	3.7500	3.7499	-0.9194	23.50	-0.38	-0.050			
0.2942	18828.76	3.7490	3.7491	-0.9256	23.50	-0.38	-0.050			
0.2951	18888.12	3.7480	3.7481	-0.9314	23.50	-0.38	-0.050			
0.2961	18947.84	3.7470	3.7471	-0.9382	23.50	-0.38	-0.050			
0.2970	19008.22	3.7460	3.7460	-0.9432	23.50	-0.38	-0.050			
0.2979	19068.74	3.7450	3.7450	-0.9486	23.50	-0.38	-0.050			
0.2989	19129.37	3.7440	3.7439	-0.9544	23.50	-0.38	-0.050			
0.2999	19190.66	3.7430	3.7430	-0.9599	23.50	-0.38	-0.050	0.357	0.572	
0.3008	19252.27	3.7420	3.7420	-0.9660	23.50	-0.38	-0.050			
0.3018	19314.45	3.7410	3.7410	-0.9720	23.50	-0.38	-0.050			
0.3028	19377.23	3.7400	3.7401	-0.9772	23.50	-0.38	-0.050			
0.3038	19440.13	3.7390	3.7390	-0.9822	23.50	-0.38	-0.050			
0.3047	19503.41	3.7380	3.7380	-0.9878	23.49	-0.39	-0.050			
0.3057	19566.91	3.7370	3.7371	-0.9937	23.50	-0.38	-0.050			
0.3067	19630.91	3.7360	3.7360	-0.9989	23.50	-0.38	-0.050			
0.3077	19695.16	3.7350	3.7349	-1.0038	23.50	-0.38	-0.050			
0.3087	19759.40	3.7340	3.7340	-1.0092	23.50	-0.38	-0.050			
0.3097	19823.74	3.7330	3.7329	-1.0141	23.50	-0.38	-0.050			
0.3108	19888.81	3.7320	3.7320	-1.0190	23.50	-0.38	-0.050			
0.3118	19953.88	3.7310	3.7310	-1.0231	23.50	-0.38	-0.050			
0.3128	20019.41	3.7300	3.7300	-1.0286	23.50	-0.38	-0.050			
0.3138	20085.42	3.7290	3.7290	-1.0341	23.50	-0.38	-0.050			
0.3149	20151.61	3.7280	3.7280	-1.0402	23.50	-0.38	-0.050			
0.3159	20218.45	3.7270	3.7270	-1.0444	23.50	-0.38	-0.050			
0.3170	20285.96	3.7260	3.7260	-1.0502	23.50	-0.38	-0.050			
0.3180	20353.16	3.7250	3.7250	-1.0554	23.49	-0.39	-0.050			
0.3191	20420.81	3.7240	3.7241	-1.0601	23.50	-0.38	-0.050			
0.3201	20488.98	3.7230	3.7231	-1.0660	23.50	-0.38	-0.050	0.349	0.550	
0.3212	20557.24	3.7220	3.7220	-1.0716	23.48	-0.40	-0.050			
0.3223	20625.96	3.7210	3.7209	-1.0779	23.49	-0.39	-0.050			
0.3234	20695.28	3.7200	3.7200	-1.0839	23.48	-0.40	-0.050			
0.3244	20764.54	3.7190	3.7190	-1.0903	23.49	-0.39	-0.050			
0.3255	20834.08	3.7180	3.7181	-1.0961	23.48	-0.40	-0.050			
0.3266	20904.33	3.7170	3.7171	-1.1019	23.48	-0.40	-0.050			
0.3277	20974.59	3.7160	3.7160	-1.1092	23.48	-0.40	-0.050			
0.3288	21045.72	3.7150	3.7150	-1.1158	23.48	-0.40	-0.050			
0.3300	21117.12	3.7140	3.7140	-1.1216	23.46	-0.42	-0.050			
0.3311	21188.90	3.7130	3.7130	-1.1294	23.46	-0.42	-0.050			
0.3322	21261.94	3.7120	3.7120	-1.1372	23.46	-0.42	-0.050			
0.3334	21334.98	3.7110	3.7109	-1.1433	23.45	-0.43	-0.050			
0.3345	21408.13	3.7100	3.7100	-1.1507	23.44	-0.44	-0.050			
0.3357	21481.86	3.7090	3.7090	-1.1586	23.44	-0.44	-0.050			
0.3368	21556.07	3.7080	3.7080	-1.1674	23.42	-0.46	-0.050			
0.3380	21631.27	3.7070	3.7071	-1.1761	23.42	-0.46	-0.050			
0.3392	21706.73	3.7060	3.7060	-1.1850	23.42	-0.46	-0.050			
0.3403	21782.28	3.7050	3.7051	-1.1924	23.41	-0.47	-0.050	0.396	0.587	
0.3415	21858.76	3.7040	3.7040	-1.2013	23.40	-0.48	-0.050			
0.3427	21935.84	3.7030	3.7031	-1.2092	23.40	-0.48	-0.050			
0.3440	22013.49	3.7020	3.7020	-1.2171	23.40	-0.48	-0.050			
0.3452	22091.91	3.7010	3.7010	-1.2246	23.40	-0.48	-0.050			
0.3464	22170.85	3.7000	3.7000	-1.2320	23.40	-0.48	-0.050			
0.3477	22250.03	3.6990	3.6991	-1.2394	23.38	-0.50	-0.050			
0.3489	22329.62	3.6980	3.6980	-1.2485	23.38	-0.50	-0.050			
0.3502	22409.90	3.6970	3.6970	-1.2567	23.38	-0.50	-0.050			
0.3514	22490.33	3.6960	3.6960	-1.2647	23.38	-0.50	-0.050			
0.3527	22571.58	3.6950	3.6950	-1.2748	23.37	-0.51	-0.050			
0.3540	22653.30	3.6940	3.6941	-1.2835	23.36	-0.52	-0.050			
0.3552	22735.24	3.6930	3.6930	-1.2927	23.35	-0.53	-0.050			
0.3565	22818.48	3.6920	3.6921	-1.3019	23.34	-0.54	-0.050			
0.3578	22901.71	3.6910	3.6911	-1.3103	23.33	-0.55	-0.050			
0.3591	22985.42	3.6900	3.6899	-1.3186	23.32	-0.56	-0.050			
0.3605	23069.64	3.6890	3.6890	-1.3288	23.31	-0.57	-0.050	0.335	0.591	
0.3618	23154.87	3.6880	3.6881	-1.3385	23.30	-0.58	-0.050			
0.3631	23240.48	3.6870	3.6868	-1.3502	23.30	-0.58	-0.050			
0.3645	23327.17	3.6860	3.6860	-1.3600	23.28	-0.60	-0.050			
0.3658	23414.09	3.6850	3.6850	-1.3727	23.28	-0.60	-0.050			
0.3672	23502.46	3.6840	3.6841	-1.3841	23.28	-0.60	-0.050			
0.3686	23591.53	3.6830	3.6830	-1.3967	23.28	-0.60	-0.050			
0.3700	23681.01	3.6820	3.6819	-1.4101	23.28	-0.60	-0.050			
0.3714	23771.79	3.6810	3.6810	-1.4225	23.28	-0.60	-0.050			
0.3729	23862.93	3.6800	3.6800	-1.4351	23.28	-0.60	-0.050			
0.3743	23955.34	3.6790	3.6789	-1.4458	23.28	-0.60	-0.050			
0.3758	24048.35	3.6780	3.6780	-1.4569	23.28	-0.60	-0.050			
0.3772	24142.02	3.6770	3.6770	-1.4695	23.28	-0.60	-0.050			
0.3787	24236.34	3.6760	3.6759	-1.4811	23.28	-0.60	-0.050			
0.3802	24331.34	3.6750	3.6750	-1.4937	23.28	-0.60	-0.050	0.355	0.579	
0.3817	24426.73	3.6740	3.6740	-1.5096	23.28	-0.60	-0.050			
0.3832	24523.72	3.6730	3.6730	-1.5236	23.28	-0.60	-0.050			
0.3847	24621.04	3.6720	3.6721	-1.5399	23.28	-0.60	-0.050			
0.3862	24719.40	3.6710	3.6710	-1.5554	23.29	-0.59	-0.050			
0.3878	24819.11	3.6700	3.6701	-1.5706	23.30	-0.58	-0.050			
0.3894	24919.76	3.6690	3.6689	-1.5862	23.30	-0.58	-0.050			
0.3910	25021.78	3.6680	3.6679	-1.6014	23.30	-0.58	-0.050			
0.3926	25124.56	3.6670	3.6669	-1.6167	23.30	-0.58	-0.050			
0.3942	25228.15	3.6660	3.6659	-1.6344	23.30	-0.58	-0.050			
0.3958	25332.68	3.6650	3.6650	-1.6517	23.30	-0.58	-0.050			
0.3975	25438.59	3.6640	3.6641	-1.6709	23.30	-0.58	-0.050			
0.3992	25545.87	3.6630	3.6629	-1.6898	23.28	-0.60	-0.050			
0.4008	25654.32	3.6620	3.6621	-1.7099	23.28	-0.60	-0.050	0.322	0.592	
0.4026	25765.40	3.6610	3.6611	-1.7279	23.28	-0.60	-0.050			
0.4043	25876.82	3.6600	3.6599	-1.7462	23.28	-0.60	-0.050			
0.4061	25989.52	3.6590	3.6590	-1.7661	23.28	-0.60	-0.050			
0.4079	26102.83	3.6580	3.6580	-1.7852	23.28	-0.60	-0.050			
0.4096	26217.47	3.6570	3.6569	-1.8037	23.28	-0.60	-0.050			
0.4115	26333.20	3.6560	3.6561	-1.8226	23.29	-0.59	-0.050			
0.4133	26449.59	3.6550	3.6550	-1.8422	23.29	-0.59	-0.050			
0.4151	26567.32	3.6540	3.6540	-1.8633	23.28	-0.60	-0.050			
0.4170	26687.31	3.6530	3.6531	-1.8846	23.27	-0.61	-0.050			
0.4189	26808.26	3.6520	3.6520	-1.9054	23.27	-0.61	-0.050			
0.4208	26930.96	3.6510	3.6509	-1.9283	23.26	-0.62	-0.050	0.489	0.722	
0.4227	27054.76	3.6500	3.6501	-1.9512	23.25	-0.63	-0.050			
0.4247	27180.03	3.6490	3.6490	-1.9733	23.24	-0.64	-0.050			
0.4267	27307.19	3.6480	3.6480	-1.9955	23.24	-0.64	-0.050			
0.4287	27435.74	3.6470	3.6470	-2.0152	23.24	-0.64	-0.050			
0.4307	27565.14	3.6460	3.6460	-2.0365	23.24	-0.64	-0.050			
0.4328	27696.18	3.6450	3.6450	-2.0582	23.24	-0.64	-0.050			
0.4348	27828.74	3.6440	3.6440	-2.0815	23.26	-0.62	-0.050			
0.4369	27962.65	3.6430	3.6430	-2.1043	23.26	-0.62	-0.050			
0.4390	28098.19	3.6420	3.6420	-2.1290	23.26	-0.62	-0.050			
0.4412	28236.34	3.6410	3.6410	-2.1507	23.26	-0.62	-0.050	0.380	0.647	
0.4434	28374.66	3.6400	3.6401	-2.1701	23.26	-0.62	-0.050			
0.4455	28514.40	3.6390	3.6390	-2.1899	23.26	-0.62	-0.050			
0.4477	28655.58	3.6380	3.6380	-2.2095	23.26	-0.62	-0.050			
0.4500	28797.99	3.6370	3.6370	-2.2290	23.26	-0.62	-0.050			
0.4522	28941.11	3.6360	3.6360	-2.2475	23.26	-0.62	-0.050			
0.4545	29085.17	3.6350	3.6350	-2.2687	23.28	-0.60	-0.050			
0.4567	29231.81	3.6340	3.6340	-2.2872	23.29	-0.59	-0.050			
0.4591	29379.24	3.6330	3.6331	-2.3041	23.30	-0.58	-0.050			
0.4614	29527.52	3.6320	3.6320	-2.3206	23.30	-0.58	-0.050	0.468	0.649	
0.4637	29677.23	3.6310	3.6310	-2.3363	23.30	-0.58	-0.050			
0.4661	29827.86	3.6300	3.6300	-2.3528	23.32	-0.56	-0.050			
0.4684	29979.43	3.6290	3.6290	-2.3682	23.34	-0.54	-0.050			
0.4708	30131.63	3.6280	3.6280	-2.3824	23.36	-0.52	-0.050			
0.4732	30284.95	3.6270	3.6271	-2.3936	23.36	-0.52	-0.050			
0.4756	30438.79	3.6260	3.6261	-2.4050	23.38	-0.50	-0.050			
0.4780	30594.28	3.6250	3.6251	-2.4121	23.37	-0.51	-0.050			
0.4805	30750.63	3.6240	3.6240	-2.4175	23.37	-0.51	-0.050	0.517	0.737	
0.4829	30907.58	3.6230	3.6230	-2.4209	23.38	-0.50	-0.050			
0.4854	31064.62	3.6220	3.6220	-2.4217	23.36	-0.52	-0.050			
0.4878	31220.90	3.6210	3.6210	-2.4186	23.36	-0.52	-0.050			
0.4903	31376.89	3.6200	3.6199	-2.4138	23.35	-0.53	-0.050			
0.4927	31532.64	3.6190	3.6189	-2.4044	23.36	-0.52	-0.050			
0.4951	31687.92	3.6180	3.6180	-2.3916	23.35	-0.53	-0.050			
0.4975	31842.66	3.6170	3.6170	-2.3787	23.34	-0.54	-0.050			
0.4999	31996.07	3.6160	3.6160	-2.3599	23.36	-0.52	-0.050	0.380	0.621	
0.5023	32148.22	3.6150	3.6150	-2.3375	23.36	-0.52	-0.050			
0.5047	32298.41	3.6140	3.6141	-2.3130	23.36	-0.52	-0.050			
0.5070	32446.43	3.6130	3.6130	-2.2852	23.36	-0.52	-0.050			
0.5093	32593.23	3.6120	3.6120	-2.2547	23.38	-0.50	-0.050			
0.5115	32738.06	3.6110	3.6111	-2.2227	23.36	-0.52	-0.050			
0.5138	32880.59	3.6100	3.6101	-2.1893	23.36	-0.52	-0.050			
0.5159	33020.64	3.6090	3.6090	-2.1559	23.36	-0.52	-0.050			
0.5181	33158.05	3.6080	3.6081	-2.1192	23.36	-0.52	-0.050			
0.5202	33292.88	3.6070	3.6069	-2.0816	23.36	-0.52	-0.050	0.469	0.575	
0.5223	33425.04	3.6060	3.6060	-2.0448	23.36	-0.52	-0.050			
0.5243	33554.24	3.6050	3.6050	-2.0094	23.36	-0.52	-0.050			
0.5263	33680.52	3.6040	3.6041	-1.9736	23.36	-0.52	-0.050			
0.5282	33804.48	3.6030	3.6030	-1.9402	23.36	-0.52	-0.050			
0.5301	33926.14	3.6020	3.6020	-1.9062	23.36	-0.52	-0.050			
0.5320	34045.48	3.6010	3.6010	-1.8757	23.36	-0.52	-0.050			
0.5338	34163.00	3.6000	3.5999	-1.8490	23.36	-0.52	-0.050			
0.5356	34278.66	3.5990	3.5990	-1.8230	23.37	-0.51	-0.050			
0.5374	34391.88	3.5980	3.5981	-1.8006	23.38	-0.50	-0.050			
0.5391	34503.34	3.5970	3.5970	-1.7806	23.38	-0.50	-0.050			
0.5409	34614.88	3.5960	3.5961	-1.7681	23.38	-0.50	-0.050	0.336	0.587	
0.5426	34724.42	3.5950	3.5950	-1.7550	23.38	-0.50	-0.050			
0.5443	34834.31	3.5940	3.5940	-1.7457	23.39	-0.49	-0.050			
0.5460	34944.67	3.5930	3.5930	-1.7392	23.40	-0.48	-0.050			
0.5477	35054.36	3.5920	3.5920	-1.7337	23.40	-0.48	-0.050			
0.5494	35164.18	3.5910	3.5909	-1.7300	23.41	-0.47	-0.050			
0.5512	35274.18	3.5900	3.5900	-1.7279	23.42	-0.46	-0.050			
0.5529	35384.15	3.5890	3.5889	-1.7260	23.42	-0.46	-0.050			
0.5546	35494.80	3.5880	3.5879	-1.7241	23.42	-0.46	-0.050			
0.5563	35605.76	3.5870	3.5870	-1.7219	23.43	-0.45	-0.050			
0.5581	35716.28	3.5860	3.5860	-1.7183	23.43	-0.45	-0.050			
0.5598	35827.91	3.5850	3.5850	-1.7145	23.42	-0.46	-0.050	0.382	0.618	
0.5615	35938.66	3.5840	3.5840	-1.7098	23.42	-0.46	-0.050			
0.5633	36049.49	3.5830	3.5830	-1.7047	23.42	-0.46	-0.050			
0.5650	36159.67	3.5820	3.5820	-1.6966	23.42	-0.46	-0.050			
0.5667	36269.06	3.5810	3.5810	-1.6878	23.42	-0.46	-0.050			
0.5684	36377.49	3.5800	3.5800	-1.6775	23.40	-0.48	-0.050			
0.5701	36484.95	3.5790	3.5791	-1.6653	23.40	-0.48	-0.050			
0.5717	36591.57	3.5780	3.5780	-1.6537	23.40	-0.48	-0.050			
0.5734	36696.85	3.5770	3.5770	-1.6407	23.40	-0.48	-0.050			
0.5750	36801.38	3.5760	3.5760	-1.6273	23.42	-0.46	-0.050			
0.5766	36904.91	3.5750	3.5750	-1.6144	23.42	-0.46	-0.050			
0.5783	37008.02	3.5740	3.5740	-1.6016	23.41	-0.47	-0.050			
0.5798	37109.89	3.5730	3.5731	-1.5887	23.42	-0.46	-0.050	0.392	0.641	
0.5814	37210.74	3.5720	3.5721	-1.5754	23.42	-0.46	-0.050			
0.5830	37310.50	3.5710	3.5710	-1.5624	23.43	-0.45	-0.050			
0.5845	37409.72	3.5700	3.5701	-1.5517	23.44	-0.44	-0.050			
0.5861	37508.15	3.5690	3.5690	-1.5424	23.44	-0.44	-0.050			
0.5876	37605.97	3.5680	3.5680	-1.5347	23.44	-0.44	-0.050			
0.5891	37703.09	3.5670	3.5670	-1.5263	23.44	-0.44	-0.050			
0.5906	37800.32	3.5660	3.5661	-1.5188	23.43	-0.45	-0.050			
0.5921	37896.07	3.5650	3.5651	-1.5124	23.43	-0.45	-0.050			
0.5936	37992.20	3.5640	3.5640	-1.5061	23.44	-0.44	-0.050			
0.5951	38087.57	3.5630	3.5629	-1.5013	23.44	-0.44	-0.050			
0.5966	38183.32	3.5620	3.5620	-1.4967	23.44	-0.44	-0.050			
0.5981	38278.19	3.5610	3.5609	-1.4937	23.44	-0.44	-0.050			
0.5996	38372.64	3.5600	3.5600	-1.4920	23.46	-0.42	-0.050			
0.6011	38467.75	3.5590	3.5591	-1.4910	23.46	-0.42	-0.050	0.218	0.562	
0.6025	38562.31	3.5580	3.5581	-1.4907	23.46	-0.42	-0.050			
0.6040	38657.32	3.5570	3.5570	-1.4916	23.46	-0.42	-0.050			
0.6055	38752.68	3.5560	3.5560	-1.4932	23.46	-0.42	-0.050			
0.6070	38848.33	3.5550	3.5551	-1.4937	23.48	-0.40	-0.050			
0.6085	38944.20	3.5540	3.5539	-1.4950	23.48	-0.40	-0.050			
0.6100	39040.26	3.5530	3.5529	-1.4949	23.48	-0.40	-0.050			
0.6115	39136.34	3.5520	3.5519	-1.4938	23.49	-0.39	-0.050			
0.6130	39232.65	3.5510	3.5511	-1.4912	23.49	-0.39	-0.050			
0.6145	39329.10	3.5500	3.5499	-1.4874	23.50	-0.38	-0.050			
0.6160	39424.97	3.5490	3.5490	-1.4819	23.50	-0.38	-0.050			
0.6175	39521.10	3.5480	3.5480	-1.4765	23.50	-0.38	-0.050			
0.6190	39617.14	3.5470	3.5470	-1.4682	23.50	-0.38	-0.050			
0.6205	39712.61	3.5460	3.5459	-1.4574	23.50	-0.38	-0.050	0.382	0.636	
0.6220	39806.95	3.5450	3.5449	-1.4468	23.50	-0.38	-0.050			
0.6235	39900.85	3.5440	3.5440	-1.4329	23.52	-0.36	-0.050			
0.6249	39993.46	3.5430	3.5430	-1.4181	23.52	-0.36	-0.050			
0.6263	40084.49	3.5420	3.5420	-1.4009	23.52	-0.36	-0.050			
0.6277	40174.20	3.5410	3.5410	-1.3799	23.51	-0.37	-0.050			
0.6291	40263.28	3.5400	3.5400	-1.3594	23.51	-0.37	-0.050			
0.6305	40350.23	3.5390	3.5391	-1.3369	23.50	-0.38	-0.050			
0.6318	40435.32	3.5380	3.5380	-1.3141	23.50	-0.38	-0.050			
0.6331	40519.05	3.5370	3.5370	-1.2903	23.49	-0.39	-0.050			
0.6344	40601.03	3.5360	3.5361	-1.2671	23.50	-0.38	-0.050			
0.6356	40681.57	3.5350	3.5350	-1.2434	23.48	-0.40	-0.050			
0.6369	40760.21	3.5340	3.5340	-1.2189	23.48	-0.40	-0.050			
0.6381	40837.44	3.5330	3.5329	-1.1950	23.48	-0.40	-0.050			
0.6393	40913.26	3.5320	3.5320	-1.1716	23.46	-0.42	-0.050			
0.6404	40987.19	3.5310	3.5310	-1.1489	23.48	-0.40	-0.050	0.377	0.578	
0.6416	41059.56	3.5300	3.5300	-1.1260	23.47	-0.41	-0.050			
0.6427	41130.05	3.5290	3.5291	-1.1042	23.48	-0.40	-0.050			
0.6437	41199.38	3.5280	3.5280	-1.0827	23.47	-0.41	-0.050			
0.6448	41267.14	3.5270	3.5269	-1.0636	23.47	-0.41	-0.050			
0.6458	41333.34	3.5260	3.5261	-1.0431	23.47	-0.41	-0.050			
0.6468	41398.25	3.5250	3.5251	-1.0261	23.47	-0.41	-0.050			
0.6479	41462.72	3.5240	3.5240	-1.0107	23.46	-0.42	-0.050			
0.6488	41525.49	3.5230	3.5230	-0.9963	23.46	-0.42	-0.050			
0.6498	41588.22	3.5220	3.5220	-0.9841	23.47	-0.41	-0.050			
0.6508	41649.63	3.5210	3.5210	-0.9739	23.47	-0.41	-0.050			
0.6517	41710.55	3.5200	3.5200	-0.9629	23.46	-0.42	-0.050			
0.6527	41770.09	3.5190	3.5190	-0.9548	23.46	-0.42	-0.050			
0.6536	41829.87	3.5180	3.5180	-0.9470	23.46	-0.42	-0.050			
0.6545	41889.12	3.5170	3.5170	-0.9437	23.46	-0.42	-0.050			
0.6554	41948.13	3.5160	3.5159	-0.9398	23.46	-0.42	-0.050			
0.6564	42007.01	3.5150	3.5150	-0.9386	23.46	-0.42	-0.050			
0.6573	42066.48	3.5140	3.5140	-0.9377	23.46	-0.42	-0.050			
0.6582	42125.54	3.5130	3.5130	-0.9383	23.46	-0.42	-0.050			
0.6591	42185.38	3.5120	3.5120	-0.9393	23.46	-0.42	-0.050			
0.6601	42244.79	3.5110	3.5110	-0.9407	23.46	-0.42	-0.050	0.349	0.592	
0.6610	42305.26	3.5100	3.5100	-0.9422	23.46	-0.42	-0.050			
0.6620	42365.74	3.5090	3.5090	-0.9439	23.46	-0.42	-0.050			
0.6629	42426.40	3.5080	3.5079	-0.9451	23.46	-0.42	-0.050			
0.6639	42487.80	3.5070	3.5070	-0.9456	23.46	-0.42	-0.050			
0.6648	42548.87	3.5060	3.5060	-0.9466	23.46	-0.42	-0.050			
0.6658	42610.21	3.5050	3.5051	-0.9460	23.46	-0.42	-0.050			
0.6667	42671.41	3.5040	3.5040	-0.9445	23.46	-0.42	-0.050			
0.6677	42733.12	3.5030	3.5030	-0.9424	23.45	-0.43	-0.050			
0.6687	42793.76	3.5020	3.5020	-0.9390	23.44	-0.44	-0.050			
0.6696	42854.67	3.5010	3.5011	-0.9358	23.44	-0.44	-0.050			
0.6705	42914.60	3.5000	3.5001	-0.9310	23.45	-0.43	-0.050			
0.6715	42974.61	3.4990	3.4990	-0.9258	23.44	-0.44	-0.050			
0.6724	43033.58	3.4980	3.4980	-0.9215	23.43	-0.45	-0.050			
0.6733	43092.03	3.4970	3.4970	-0.9160	23.43	-0.45	-0.050			
0.6742	43149.68	3.4960	3.4961	-0.9129	23.44	-0.44	-0.050			
0.6751	43207.39	3.4950	3.4951	-0.9094	23.44	-0.44	-0.050			
0.6760	43264.38	3.4940	3.4939	-0.9095	23.44	-0.44	-0.050			
0.6769	43321.25	3.4930	3.4931	-0.9074	23.43	-0.45	-0.050			
0.6778	43378.15	3.4920	3.4921	-0.9094	23.43	-0.45	-0.050			
0.6787	43435.07	3.4910	3.4910	-0.9098	23.44	-0.44	-0.050			
0.6796	43491.62	3.4900	3.4900	-0.9147	23.43	-0.45	-0.050			
0.6804	43548.55	3.4890	3.4890	-0.9240	23.43	-0.45	-0.050	0.463	0.648	
0.6813	43605.93	3.4880	3.4880	-0.9355	23.42	-0.46	-0.050			
0.6822	43663.02	3.4870	3.4870	-0.9486	23.42	-0.46	-0.050			
0.6832	43721.84	3.4860	3.4861	-0.9674	23.43	-0.45	-0.050			
0.6841	43780.67	3.4850	3.4851	-0.9878	23.42	-0.46	-0.050			
0.6850	43840.48	3.4840	3.4841	-1.0192	23.43	-0.45	-0.050			
0.6860	43902.08	3.4830	3.4831	-1.0491	23.44	-0.44	-0.050			
0.6870	43966.09	3.4820	3.4821	-1.0906	23.44	-0.44	-0.050			
0.6880	44032.65	3.4810	3.4810	-1.1372	23.44	-0.44	-0.050			
0.6891	44100.99	3.4800	3.4801	-1.1843	23.44	-0.44	-0.050			
0.6902	44174.54	3.4790	3.4790	-1.2421	23.45	-0.43	-0.050			
0.6914	44250.93	3.4780	3.4781	-1.2992	23.46	-0.42	-0.050			
0.6927	44332.87	3.4770	3.4770	-1.3681	23.46	-0.42	-0.050			
0.6941	44420.03	3.4760	3.4760	-1.4330	23.46	-0.42	-0.050			
0.6955	44514.07	3.4750	3.4749	-1.5041	23.46	-0.42	-0.050			
0.6971	44613.05	3.4740	3.4740	-1.5727	23.46	-0.42	-0.050			
0.6987	44717.44	3.4730	3.4729	-1.6445	23.46	-0.42	-0.050			
0.7004	44828.70	3.4720	3.4719	-1.7109	23.46	-0.42	-0.050	0.437	0.658	
0.7022	44943.83	3.4710	3.4709	-1.7734	23.47	-0.41	-0.050			
0.7041	45063.86	3.4700	3.4699	-1.8323	23.46	-0.42	-0.050			
0.7061	45189.15	3.4690	3.4690	-1.8823	23.48	-0.40	-0.050			
0.7081	45316.73	3.4680	3.4680	-1.9294	23.47	-0.41	-0.050			
0.7101	45446.84	3.4670	3.4671	-1.9681	23.47	-0.41	-0.050			
0.7122	45579.07	3.4660	3.4660	-1.9988	23.47	-0.41	-0.050			
0.7143	45712.48	3.4650	3.4650	-2.0195	23.48	-0.40	-0.050			
0.7164	45848.07	3.4640	3.4641	-2.0341	23.47	-0.41	-0.050			
0.7185	45983.36	3.4630	3.4631	-2.0372	23.47	-0.41	-0.050			
0.7206	46118.88	3.4620	3.4621	-2.0370	23.47	-0.41	-0.050	0.362	0.615	
0.7227	46253.13	3.4610	3.4610	-2.0272	23.48	-0.40	-0.050			
0.7248	46385.16	3.4600	3.4600	-2.0122	23.48	-0.40	-0.050			
0.7268	46516.58	3.4590	3.4590	-1.9916	23.48	-0.40	-0.050			
0.7288	46645.61	3.4580	3.4580	-1.9653	23.48	-0.40	-0.050			
0.7308	46773.11	3.4570	3.4570	-1.9381	23.48	-0.40	-0.050			
0.7328	46898.86	3.4560	3.4561	-1.9046	23.48	-0.40	-0.050			
0.7347	47021.57	3.4550	3.4550	-1.8686	23.48	-0.40	-0.050			
0.7366	47141.71	3.4540	3.4540	-1.8302	23.46	-0.42	-0.050			
0.7384	47258.86	3.4530	3.4530	-1.7905	23.48	-0.40	-0.050			
0.7402	47373.60	3.4520	3.4521	-1.7485	23.48	-0.40	-0.050	0.392	0.640	
0.7420	47485.45	3.4510	3.4510	-1.7052	23.46	-0.42	-0.050			
0.7437	47593.80	3.4500	3.4500	-1.6594	23.47	-0.41	-0.050			
0.7453	47698.86	3.4490	3.4490	-1.6114	23.46	-0.42	-0.050			
0.7469	47800.91	3.4480	3.4481	-1.5640	23.46	-0.42	-0.050			
0.7484	47899.56	3.4470	3.4470	-1.5148	23.46	-0.42	-0.050			
0.7499	47995.29	3.4460	3.4460	-1.4658	23.46	-0.42	-0.050			
0.7514	48087.98	3.4450	3.4450	-1.4176	23.46	-0.42	-0.050			
0.7528	48177.32	3.4440	3.4439	-1.3689	23.46	-0.42	-0.050			
0.7541	48263.54	3.4430	3.4431	-1.3196	23.47	-0.41	-0.050			
0.7554	48345.52	3.4420	3.4420	-1.2707	23.46	-0.42	-0.050			
0.7566	48425.28	3.4410	3.4410	-1.2229	23.47	-0.41	-0.050			
0.7578	48501.63	3.4400	3.4400	-1.1745	23.48	-0.40	-0.050			
0.7590	48574.88	3.4390	3.4390	-1.1275	23.48	-0.40	-0.050			
0.7601	48644.52	3.4380	3.4381	-1.0827	23.48	-0.40	-0.050	0.509	0.689	
0.7611	48712.35	3.4370	3.4370	-1.0369	23.48	-0.40	-0.050			
0.7621	48775.85	3.4360	3.4360	-0.9954	23.48	-0.40	-0.050			
0.7631	48837.11	3.4350	3.4350	-0.9532	23.48	-0.40	-0.050			
0.7640	48895.92	3.4340	3.4340	-0.9099	23.48	-0.40	-0.050			
0.7649	48951.45	3.4330	3.4329	-0.8701	23.48	-0.40	-0.050			
0.7657	49004.82	3.4320	3.4320	-0.8328	23.48	-0.40	-0.050			
0.7665	49055.62	3.4310	3.4310	-0.7964	23.49	-0.39	-0.050			
0.7673	49104.18	3.4300	3.4299	-0.7622	23.50	-0.38	-0.050			
0.7680	49150.52	3.4290	3.4290	-0.7297	23.50	-0.38	-0.050			
0.7687	49195.27	3.4280	3.4281	-0.6959	23.50	-0.38	-0.050			
0.7693	49238.02	3.4270	3.4269	-0.6673	23.50	-0.38	-0.050			
0.7700	49278.07	3.4260	3.4261	-0.6386	23.50	-0.38	-0.050			
0.7706	49317.08	3.4250	3.4250	-0.6089	23.50	-0.38	-0.050			
0.7712	49354.15	3.4240	3.4240	-0.5851	23.50	-0.38	-0.050			
0.7717	49389.32	3.4230	3.4230	-0.5623	23.50	-0.38	-0.050			
0.7722	49423.36	3.4220	3.4220	-0.5368	23.50	-0.38	-0.050			
0.7727	49455.84	3.4210	3.4210	-0.5173	23.50	-0.38	-0.050			
0.7732	49487.86	3.4200	3.4199	-0.4961	23.50	-0.38	-0.050			
0.7737	49517.63	3.4190	3.4189	-0.4788	23.50	-0.38	-0.050			
0.7742	49546.14	3.4180	3.4180	-0.4579	23.51	-0.37	-0.050			
0.7746	49574.29	3.4170	3.4170	-0.4442	23.51	-0.37	-0.050			
0.7750	49600.81	3.4160	3.4160	-0.4262	23.50	-0.38	-0.050			
0.7754	49626.49	3.4150	3.4149	-0.4129	23.50	-0.38	-0.050			
0.7758	49652.52	3.4140	3.4140	-0.4003	23.50	-0.38	-0.050			
0.7762	49676.80	3.4130	3.4130	-0.3897	23.50	-0.38	-0.050			
0.7766	49700.85	3.4120	3.4120	-0.3775	23.51	-0.37	-0.050			
0.7769	49723.64	3.4110	3.4110	-0.3680	23.51	-0.37	-0.050			
0.7773	49746.43	3.4100	3.4100	-0.3574	23.51	-0.37	-0.050			
0.7776	49768.33	3.4090	3.4090	-0.3478	23.51	-0.37	-0.050			
0.7780	49790.33	3.4080	3.4080	-0.3394	23.51	-0.37	-0.050			
0.7783	49811.03	3.4070	3.4070	-0.3319	23.51	-0.37	-0.050			
0.7786	49831.74	3.4060	3.4060	-0.3238	23.51	-0.37	-0.050			
0.7789	49851.64	3.4050	3.4049	-0.3186	23.51	-0.37	-0.050			
0.7792	49871.39	3.4040	3.4040	-0.3114	23.51	-0.37	-0.050			
0.7795	49890.24	3.4030	3.4030	-0.3053	23.51	-0.37	-0.050			
0.7798	49909.62	3.4020	3.4020	-0.3003	23.50	-0.38	-0.050			
0.7801	49928.01	3.4010	3.4011	-0.2953	23.50	-0.38	-0.050			
0.7804	49946.77	3.4000	3.4001	-0.2909	23.50	-0.38	-0.050			
0.7807	49964.95	3.3990	3.3990	-0.2861	23.51	-0.37	-0.050	0.392	0.641	
0.7810	49982.90	3.3980	3.3980	-0.2829	23.51	-0.37	-0.050			
0.7813	50000.59	3.3970	3.3970	-0.2786	23.51	-0.37	-0.050			
0.7815	50018.10	3.3960	3.3959	-0.2759	23.50	-0.38	-0.050			
0.7818	50035.37	3.3950	3.3950	-0.2721	23.50	-0.38	-0.050			
0.7821	50052.69	3.3940	3.3941	-0.2692	23.50	-0.38	-0.050			
0.7823	50069.54	3.3930	3.3930	-0.2660	23.50	-0.38	-0.050			
0.7826	50086.48	3.3920	3.3920	-0.2633	23.50	-0.38	-0.050			
0.7829	50103.04	3.3910	3.3909	-0.2604	23.50	-0.38	-0.050			
0.7831	50119.44	3.3900	3.3901	-0.2588	23.51	-0.37	-0.050			
0.7834	50135.88	3.3890	3.3890	-0.2566	23.51	-0.37	-0.050			
0.7836	50152.20	3.3880	3.3880	-0.2545	23.51	-0.37	-0.050			
0.7839	50168.50	3.3870	3.3870	-0.2526	23.51	-0.37	-0.050			
0.7841	50184.60	3.3860	3.3859	-0.2504	23.50	-0.38	-0.050			
0.7844	50200.06	3.3850	3.3851	-0.2488	23.50	-0.38	-0.050			
0.7846	50215.94	3.3840	3.3840	-0.2472	23.50	-0.38	-0.050			
0.7849	50231.35	3.3830	3.3831	-0.2452	23.50	-0.38	-0.050			
0.7851	50247.00	3.3820	3.3819	-0.2439	23.50	-0.38	-0.050			
0.7854	50262.53	3.3810	3.3811	-0.2425	23.50	-0.38	-0.050			
0.7856	50278.10	3.3800	3.3798	-0.2410	23.50	-0.38	-0.050			
0.7858	50293.49	3.3790	3.3790	-0.2397	23.50	-0.38	-0.050			
0.7861	50308.73	3.3780	3.3781	-0.2382	23.50	-0.38	-0.050			
0.7863	50323.94	3.3770	3.3769	-0.2369	23.50	-0.38	-0.050			
0.7865	50339.02	3.3760	3.3760	-0.2355	23.50	-0.38	-0.050			
0.7868	50354.05	3.3750	3.3749	-0.2342	23.50	-0.38	-0.050			
0.7870	50368.98	3.3740	3.3741	-0.2330	23.50	-0.38	-0.050			
0.7872	50383.87	3.3730	3.3731	-0.2318	23.50	-0.38	-0.050			
0.7875	50398.65	3.3720	3.3720	-0.2306	23.50	-0.38	-0.050			
0.7877	50413.36	3.3710	3.3710	-0.2293	23.50	-0.38	-0.050			
0.7879	50428.14	3.3700	3.3701	-0.2283	23.50	-0.38	-0.050			
0.7882	50442.59	3.3690	3.3689	-0.2273	23.50	-0.38	-0.050			
0.7884	50456.93	3.3680	3.3680	-0.2257	23.50	-0.38	-0.050			
0.7886	50471.34	3.3670	3.3670	-0.2246	23.50	-0.38	-0.050			
0.7888	50485.69	3.3660	3.3660	-0.2235	23.50	-0.38	-0.050			
0.7891	50500.02	3.3650	3.3650	-0.2226	23.49	-0.39	-0.050			
0.7893	50514.23	3.3640	3.3640	-0.2214	23.49	-0.39	-0.050			
0.7895	50528.11	3.3630	3.3631	-0.2198	23.49	-0.39	-0.050			
0.7897	50542.15	3.3620	3.3620	-0.2190	23.48	-0.40	-0.050			
0.7899	50556.14	3.3610	3.3610	-0.2181	23.48	-0.40	-0.050			
0.7902	50570.11	3.3600	3.3600	-0.2172	23.48	-0.40	-0.050			
0.7904	50583.98	3.3590	3.3589	-0.2162	23.48	-0.40	-0.050			
0.7906	50597.79	3.3580	3.3580	-0.2153	23.49	-0.39	-0.050			
0.7908	50611.54	3.3570	3.3570	-0.2147	23.49	-0.39	-0.050			
0.7910	50625.26	3.3560	3.3561	-0.2138	23.49	-0.39	-0.050			
0.7912	50638.91	3.3550	3.3550	-0.2129	23.49	-0.39	-0.050			
0.7914	50652.59	3.3540	3.3539	-0.2116	23.48	-0.40	-0.050			
0.7917	50666.10	3.3530	3.3531	-0.2106	23.48	-0.40	-0.050			
0.7919	50679.56	3.3520	3.3520	-0.2096	23.48	-0.40	-0.050			
0.7921	50692.90	3.3510	3.3510	-0.2086	23.48	-0.40	-0.050			
0.7923	50706.22	3.3500	3.3500	-0.2076	23.48	-0.40	-0.050			
0.7925	50719.51	3.3490	3.3490	-0.2067	23.48	-0.40	-0.050			
0.7927	50732.71	3.3480	3.3480	-0.2057	23.48	-0.40	-0.050			
0.7929	50745.64	3.3470	3.3470	-0.2055	23.48	-0.40	-0.050			
0.7931	50758.64	3.3460	3.3460	-0.2045	23.48	-0.40	-0.050			
0.7933	50771.71	3.3450	3.3451	-0.2038	23.48	-0.40	-0.050			
0.7935	50784.73	3.3440	3.3441	-0.2031	23.48	-0.40	-0.050			
0.7937	50797.68	3.3430	3.3430	-0.2024	23.48	-0.40	-0.050			
0.7939	50810.62	3.3420	3.3419	-0.2018	23.48	-0.40	-0.050			
0.7941	50823.73	3.3410	3.3410	-0.2004	23.48	-0.40	-0.050			
0.7943	50836.52	3.3400	3.3398	-0.1995	23.48	-0.40	-0.050			
0.7945	50849.26	3.3390	3.3389	-0.1986	23.48	-0.40	-0.050			
0.7947	50861.71	3.3380	3.3381	-0.1985	23.48	-0.40	-0.050			
0.7949	50874.34	3.3370	3.3369	-0.1978	23.48	-0.40	-0.050			
0.7951	50886.98	3.3360	3.3361	-0.1972	23.48	-0.40	-0.050			
0.7953	50899.63	3.3350	3.3350	-0.1964	23.48	-0.40	-0.050			
0.7955	50912.14	3.3340	3.3341	-0.1957	23.48	-0.40	-0.050			
0.7957	50924.64	3.3330	3.3331	-0.1951	23.48	-0.40	-0.050			
0.7959	50937.11	3.3320	3.3320	-0.1945	23.48	-0.40	-0.050			
0.7961	50949.81	3.3310	3.3310	-0.1941	23.48	-0.40	-0.050			
0.7963	50962.20	3.3300	3.3300	-0.1932	23.48	-0.40	-0.050			
0.7965	50974.54	3.3290	3.3290	-0.1924	23.48	-0.40	-0.050			
0.7967	50986.90	3.3280	3.3279	-0.1912	23.48	-0.40	-0.050			
0.7969	50999.10	3.3270	3.3267	-0.1903	23.48	-0.40	-0.050			
0.7971	51011.25	3.3260	3.3261	-0.1894	23.48	-0.40	-0.050			
0.7972	51023.34	3.3250	3.3250	-0.1885	23.49	-0.39	-0.050			
0.7974	51035.11	3.3240	3.3241	-0.1878	23.49	-0.39	-0.050			
0.7976	51047.11	3.3230	3.3230	-0.1871	23.49	-0.39	-0.050			
0.7978	51059.06	3.3220	3.3220	-0.1864	23.49	-0.39	-0.050			
0.7980	51070.88	3.3210	3.3211	-0.1863	23.49	-0.39	-0.050			
0.7982	51082.78	3.3200	3.3200	-0.1857	23.48	-0.40	-0.050			
0.7984	51094.65	3.3190	3.3189	-0.1851	23.48	-0.40	-0.050			
0.7985	51106.57	3.3180	3.3180	-0.1847	23.48	-0.40	-0.050			
0.7987	51118.37	3.3170	3.3171	-0.1841	23.49	-0.39	-0.050			
0.7989	51130.12	3.3160	3.3160	-0.1836	23.49	-0.39	-0.050			
0.7991	51141.55	3.3150	3.3150	-0.1818	23.49	-0.39	-0.050			
0.7993	51153.17	3.3140	3.3138	-0.1814	23.50	-0.38	-0.050			
0.7994	51164.77	3.3130	3.3130	-0.1811	23.50	-0.38	-0.050			
0.7996	51176.53	3.3120	3.3121	-0.1802	23.50	-0.38	-0.050			
0.7998	51188.17	3.3110	3.3110	-0.1800	23.49	-0.39	-0.050			
0.8000	51199.67	3.3100	3.3099	-0.1794	23.49	-0.39	-0.050			
0.8002	51211.13	3.3090	3.3091	-0.1787	23.49	-0.39	-0.050			
0.8004	51222.75	3.3080	3.3081	-0.1783	23.49	-0.39	-0.050			
0.8005	51234.13	3.3070	3.3069	-0.1775	23.49	-0.39	-0.050			
0.8007	51245.47	3.3060	3.3060	-0.1767	23.50	-0.38	-0.050	0.508	0.849	
0.8009	51256.75	3.3050	3.3050	-0.1758	23.50	-0.38	-0.050			
0.8011	51268.02	3.3040	3.3040	-0.1759	23.50	-0.38	-0.050			
0.8012	51279.25	3.3030	3.3030	-0.1751	23.50	-0.38	-0.050			
0.8014	51290.43	3.3020	3.3020	-0.1742	23.50	-0.38	-0.050			
0.8016	51301.45	3.3010	3.3009	-0.1731	23.50	-0.38	-0.050			
0.8018	51312.51	3.3000	3.3000	-0.1723	23.50	-0.38	-0.050			
0.8019	51323.51	3.2990	3.2989	-0.1716	23.50	-0.38	-0.050			
0.8021	51334.47	3.2980	3.2979	-0.1709	23.50	-0.38	-0.050			
0.8023	51345.29	3.2970	3.2969	-0.1706	23.50	-0.38	-0.050			
0.8024	51355.97	3.2960	3.2958	-0.1697	23.50	-0.38	-0.050			
0.8026	51366.82	3.2950	3.2950	-0.1693	23.50	-0.38	-0.050			
0.8028	51377.64	3.2940	3.2941	-0.1688	23.50	-0.38	-0.050			
0.8029	51388.45	3.2930	3.2931	-0.1682	23.50	-0.38	-0.050			
0.8031	51399.21	3.2920	3.2921	-0.1677	23.51	-0.37	-0.050			
0.8033	51409.93	3.2910	3.2911	-0.1672	23.51	-0.37	-0.050			
0.8034	51420.61	3.2900	3.2900	-0.1667	23.51	-0.37	-0.050			
0.8036	51431.25	3.2890	3.2890	-0.1662	23.51	-0.37	-0.050			
0.8038	51441.87	3.2880	3.2879	-0.1657	23.51	-0.37	-0.050			
0.8039	51452.45	3.2870	3.2868	-0.1652	23.51	-0.37	-0.050			
0.8041	51463.01	3.2860	3.2860	-0.1647	23.51	-0.37	-0.050			
0.8043	51473.50	3.2850	3.2851	-0.1643	23.51	-0.37	-0.050			
0.8044	51483.99	3.2840	3.2840	-0.1637	23.51	-0.37	-0.050			
0.8046	51494.45	3.2830	3.2830	-0.1633	23.51	-0.37	-0.050			
0.8048	51504.88	3.2820	3.2820	-0.1628	23.51	-0.37	-0.050			
0.8049	51515.21	3.2810	3.2808	-0.1620	23.51	-0.37	-0.050			
0.8051	51525.57	3.2800	3.2801	-0.1616	23.51	-0.37	-0.050			
0.8052	51535.90	3.2790	3.2791	-0.1612	23.51	-0.37	-0.050			
0.8054	51546.20	3.2780	3.2780	-0.1608	23.51	-0.37	-0.050			
0.8056	51556.75	3.2770	3.2769	-0.1604	23.52	-0.36	-0.050			
0.8057	51566.99	3.2760	3.2760	-0.1598	23.52	-0.36	-0.050			
0.8059	51577.20	3.2750	3.2751	-0.1591	23.52	-0.36	-0.050			
0.8061	51587.36	3.2740	3.2741	-0.1585	23.52	-0.36	-0.050			
0.8062	51597.28	3.2730	3.2731	-0.1580	23.52	-0.36	-0.050			
0.8064	51607.38	3.2720	3.2720	-0.1575	23.52	-0.36	-0.050			
0.8065	51617.45	3.2710	3.2710	-0.1571	23.52	-0.36	-0.050			
0.8067	51627.48	3.2700	3.2700	-0.1566	23.52	-0.36	-0.050			
0.8068	51637.57	3.2690	3.2691	-0.1561	23.52	-0.36	-0.050			
0.8070	51647.54	3.2680	3.2681	-0.1556	23.52	-0.36	-0.050			
0.8071	51657.48	3.2670	3.2670	-0.1550	23.53	-0.35	-0.050			
0.8073	51667.39	3.2660	3.2659	-0.1545	23.53	-0.35	-0.050			
0.8075	51677.27	3.2650	3.2650	-0.1539	23.54	-0.34	-0.050			
0.8076	51687.10	3.2640	3.2641	-0.1533	23.54	-0.34	-0.050			
0.8078	51696.90	3.2630	3.2629	-0.1528	23.54	-0.34	-0.050			
0.8079	51706.66	3.2620	3.2619	-0.1522	23.54	-0.34	-0.050			
0.8081	51716.31	3.2610	3.2611	-0.1517	23.54	-0.34	-0.050			
0.8082	51726.00	3.2600	3.2601	-0.1512	23.54	-0.34	-0.050			
0.8084	51735.67	3.2590	3.2590	-0.1507	23.54	-0.34	-0.050			
0.8085	51745.30	3.2580	3.2580	-0.1502	23.54	-0.34	-0.050			
0.8087	51755.03	3.2570	3.2570	-0.1496	23.54	-0.34	-0.050			
0.8088	51764.58	3.2560	3.2560	-0.1490	23.54	-0.34	-0.050			
0.8090	51774.10	3.2550	3.2550	-0.1484	23.54	-0.34	-0.050			
0.8091	51783.57	3.2540	3.2540	-0.1478	23.54	-0.34	-0.050			
0.8093	51793.15	3.2530	3.2530	-0.1473	23.54	-0.34	-0.050			
0.8094	51802.46	3.2520	3.2519	-0.1469	23.54	-0.34	-0.050			
0.8096	51811.84	3.2510	3.2509	-0.1462	23.54	-0.34	-0.050			
0.8097	51821.18	3.2500	3.2501	-0.1456	23.54	-0.34	-0.050			
0.8098	51830.34	3.2490	3.2490	-0.1448	23.54	-0.34	-0.050			
0.8100	51839.70	3.2480	3.2480	-0.1440	23.54	-0.34	-0.050			
0.8101	51848.90	3.2470	3.2470	-0.1434	23.54	-0.34	-0.050			
0.8103	51858.06	3.2460	3.2461	-0.1428	23.54	-0.34	-0.050			
0.8104	51867.28	3.2450	3.2450	-0.1424	23.54	-0.34	-0.050			
0.8106	51876.37	3.2440	3.2439	-0.1417	23.54	-0.34	-0.050			
0.8107	51885.15	3.2430	3.2430	-0.1418	23.54	-0.34	-0.050			
0.8108	51894.21	3.2420	3.2420	-0.1414	23.54	-0.34	-0.050			
0.8110	51903.14	3.2410	3.2410	-0.1407	23.54	-0.34	-0.050			
0.8111	51912.14	3.2400	3.2401	-0.1404	23.54	-0.34	-0.050			
0.8113	51920.99	3.2390	3.2391	-0.1403	23.54	-0.34	-0.050			
0.8114	51929.96	3.2380	3.2382	-0.1401	23.54	-0.34	-0.050			
0.8115	51938.69	3.2370	3.2369	-0.1393	23.54	-0.34	-0.050			
0.8117	51947.60	3.2360	3.2360	-0.1392	23.54	-0.34	-0.050			
0.8118	51956.50	3.2350	3.2351	-0.1391	23.54	-0.34	-0.050			
0.8120	51965.73	3.2340	3.2336	-0.1380	23.54	-0.34	-0.050			
0.8121	51974.55	3.2330	3.2328	-0.1376	23.54	-0.34	-0.050			
0.8122	51983.49	3.2320	3.2320	-0.1375	23.54	-0.34	-0.050			
0.8124	51992.28	3.2310	3.2310	-0.1370	23.54	-0.34	-0.050			
0.8125	52001.04	3.2300	3.2301	-0.1366	23.54	-0.34	-0.050			
0.8127	52009.76	3.2290	3.2290	-0.1361	23.54	-0.34	-0.050			
0.8128	52018.55	3.2280	3.2280	-0.1358	23.54	-0.34	-0.050			
0.8129	52027.22	3.2270	3.2270	-0.1353	23.54	-0.34	-0.050			
0.8131	52035.86	3.2260	3.2261	-0.1347	23.54	-0.34	-0.050			
0.8132	52044.42	3.2250	3.2251	-0.1344	23.54	-0.34	-0.050			
0.8133	52053.00	3.2240	3.2241	-0.1339	23.54	-0.34	-0.050			
0.8135	52061.77	3.2230	3.2231	-0.1338	23.54	-0.34	-0.050			
0.8136	52070.31	3.2220	3.2220	-0.1331	23.54	-0.34	-0.050			
0.8137	52078.81	3.2210	3.2210	-0.1325	23.54	-0.34	-0.050			
0.8139	52087.13	3.2200	3.2201	-0.1322	23.54	-0.34	-0.050			
0.8140	52095.35	3.2190	3.2189	-0.1310	23.54	-0.34	-0.050			
0.8141	52103.73	3.2180	3.2178	-0.1306	23.54	-0.34	-0.050			
0.8143	52112.07	3.2170	3.2170	-0.1303	23.54	-0.34	-0.050			
0.8144	52120.40	3.2160	3.2162	-0.1299	23.54	-0.34	-0.050			
0.8145	52128.70	3.2150	3.2152	-0.1295	23.54	-0.34	-0.050			
0.8146	52136.82	3.2140	3.2138	-0.1288	23.54	-0.34	-0.050			
0.8148	52145.06	3.2130	3.2128	-0.1286	23.54	-0.34	-0.050			
0.8149	52153.28	3.2120	3.2121	-0.1283	23.54	-0.34	-0.050			
0.8150	52161.48	3.2110	3.2111	-0.1280	23.54	-0.34	-0.050			
0.8152	52169.75	3.2100	3.2101	-0.1275	23.54	-0.34	-0.050			
0.8153	52178.13	3.2090	3.2088	-0.1276	23.54	-0.34	-0.050			
0.8154	52186.28	3.2080	3.2079	-0.1271	23.54	-0.34	-0.050			
0.8155	52194.40	3.2070	3.2071	-0.1267	23.54	-0.34	-0.050			
0.8157	52202.49	3.2060	3.2061	-0.1262	23.54	-0.34	-0.050			
0.8158	52210.53	3.2050	3.2050	-0.1256	23.54	-0.34	-0.050			
0.8159	52218.55	3.2040	3.2037	-0.1251	23.54	-0.34	-0.050			
0.8160	52226.54	3.2030	3.2030	-0.1247	23.54	-0.34	-0.050			
0.8162	52234.51	3.2020	3.2019	-0.1242	23.54	-0.34	-0.050			
0.8163	52242.44	3.2010	3.2011	-0.1237	23.54	-0.34	-0.050			
0.8164	52250.03	3.2000	3.2003	-0.1238	23.54	-0.34	-0.050			
0.8165	52257.95	3.1990	3.1990	-0.1236	23.54	-0.34	-0.050			
0.8167	52265.86	3.1980	3.1979	-0.1234	23.54	-0.34	-0.050			
0.8168	52273.75	3.1970	3.1970	-0.1232	23.54	-0.34	-0.050			
0.8169	52281.63	3.1960	3.1960	-0.1230	23.54	-0.34	-0.050			
0.8170	52289.50	3.1950	3.1948	-0.1228	23.54	-0.34	-0.050			
0.8171	52297.31	3.1940	3.1940	-0.1221	23.54	-0.34	-0.050			
0.8173	52305.12	3.1930	3.1930	-0.1219	23.54	-0.34	-0.050			
0.8174	52312.92	3.1920	3.1917	-0.1217	23.54	-0.34	-0.050			
0.8175	52320.70	3.1910	3.1910	-0.1215	23.54	-0.34	-0.050			
0.8176	52328.38	3.1900	3.1901	-0.1212	23.54	-0.34	-0.050			
0.8178	52336.45	3.1890	3.1888	-0.1205	23.54	-0.34	-0.050			
0.8179	52344.14	3.1880	3.1878	-0.1201	23.54	-0.34	-0.050			
0.8180	52351.82	3.1870	3.1870	-0.1197	23.54	-0.34	-0.050			
0.8181	52359.47	3.1860	3.1861	-0.1193	23.54	-0.34	-0.050			
0.8182	52367.32	3.1850	3.1849	-0.1192	23.54	-0.34	-0.050			
0.8184	52374.80	3.1840	3.1840	-0.1189	23.54	-0.34	-0.050			
0.8185	52382.40	3.1830	3.1832	-0.1185	23.54	-0.34	-0.050			
0.8186	52389.97	3.1820	3.1820	-0.1180	23.54	-0.34	-0.050			
0.8187	52397.50	3.1810	3.1810	-0.1176	23.54	-0.34	-0.050			
0.8188	52405.23	3.1800	3.1800	-0.1175	23.54	-0.34	-0.050			
0.8189	52412.73	3.1790	3.1790	-0.1169	23.55	-0.33	-0.050			
0.8191	52420.06	3.1780	3.1781	-0.1166	23.55	-0.33	-0.050			
0.8192	52427.51	3.1770	3.1770	-0.1161	23.55	-0.33	-0.050			
0.8193	52434.93	3.1760	3.1759	-0.1156	23.55	-0.33	-0.050			
0.8194	52442.31	3.1750	3.1750	-0.1151	23.55	-0.33	-0.050			
0.8195	52449.22	3.1740	3.1741	-0.1142	23.55	-0.33	-0.050			
0.8196	52456.80	3.1730	3.1729	-0.1135	23.55	-0.33	-0.050			
0.8198	52464.05	3.1720	3.1719	-0.1131	23.54	-0.34	-0.050			
0.8199	52471.28	3.1710	3.1711	-0.1127	23.54	-0.34	-0.050			
0.8200	52478.48	3.1700	3.1701	-0.1123	23.54	-0.34	-0.050			
0.8201	52485.79	3.1690	3.1689	-0.1121	23.54	-0.34	-0.050			
0.8202	52492.95	3.1680	3.1681	-0.1116	23.54	-0.34	-0.050			
0.8203	52499.94	3.1670	3.1670	-0.1115	23.54	-0.34	-0.050			
0.8204	52507.06	3.1660	3.1660	-0.1111	23.54	-0.34	-0.050			
0.8205	52514.16	3.1650	3.1651	-0.1107	23.54	-0.34	-0.050			
0.8206	52521.34	3.1640	3.1643	-0.1105	23.54	-0.34	-0.050	0.336	0.583	
0.8208	52528.40	3.1630	3.1630	-0.1100	23.54	-0.34	-0.050			
0.8209	52535.27	3.1620	3.1619	-0.1099	23.54	-0.34	-0.050			
0.8210	52542.29	3.1610	3.1610	-0.1095	23.54	-0.34	-0.050			
0.8211	52549.29	3.1600	3.1599	-0.1091	23.54	-0.34	-0.050			
0.8212	52556.26	3.1590	3.1589	-0.1088	23.54	-0.34	-0.050			
0.8213	52562.96	3.1580	3.1580	-0.1081	23.54	-0.34	-0.050			
0.8214	52569.87	3.1570	3.1570	-0.1079	23.54	-0.34	-0.050			
0.8215	52576.76	3.1560	3.1559	-0.1077	23.54	-0.34	-0.050			
0.8216	52583.74	3.1550	3.1549	-0.1072	23.54	-0.34	-0.050			
0.8217	52590.59	3.1540	3.1540	-0.1069	23.54	-0.34	-0.050			
0.8218	52597.38	3.1530	3.1530	-0.1066	23.54	-0.34	-0.050			
0.8219	52604.20	3.1520	3.1519	-0.1063	23.54	-0.34	-0.050			
0.8220	52610.99	3.1510	3.1509	-0.1061	23.54	-0.34	-0.050			
0.8222	52617.77	3.1500	3.1501	-0.1058	23.54	-0.34	-0.050			
0.8223	52624.68	3.1490	3.1490	-0.1051	23.54	-0.34	-0.050			
0.8224	52631.39	3.1480	3.1479	-0.1047	23.54	-0.34	-0.050			
0.8225	52638.41	3.1470	3.1470	-0.1050	23.54	-0.34	-0.050			
0.8226	52645.11	3.1460	3.1461	-0.1044	23.54	-0.34	-0.050			
0.8227	52651.78	3.1450	3.1450	-0.1039	23.54	-0.34	-0.050			
0.8228	52658.41	3.1440	3.1439	-0.1034	23.54	-0.34	-0.050			
0.8229	52664.76	3.1430	3.1429	-0.1035	23.54	-0.34	-0.050			
0.8230	52671.25	3.1420	3.1419	-0.1028	23.54	-0.34	-0.050			
0.8231	52677.82	3.1410	3.1410	-0.1025	23.54	-0.34	-0.050			
0.8232	52684.37	3.1400	3.1401	-0.1022	23.54	-0.34	-0.050			
0.8233	52690.90	3.1390	3.1391	-0.1020	23.54	-0.34	-0.050			
0.8234	52697.42	3.1380	3.1380	-0.1017	23.54	-0.34	-0.050			
0.8235	52703.97	3.1370	3.1371	-0.1013	23.54	-0.34	-0.050			
0.8236	52710.44	3.1360	3.1360	-0.1010	23.54	-0.34	-0.050			
0.8237	52716.82	3.1350	3.1349	-0.1005	23.54	-0.34	-0.050			
0.8238	52723.24	3.1340	3.1339	-0.1002	23.54	-0.34	-0.050			
0.8239	52729.64	3.1330	3.1329	-0.0999	23.54	-0.34	-0.050			
0.8240	52736.03	3.1320	3.1319	-0.0997	23.54	-0.34	-0.050			
0.8241	52742.40	3.1310	3.1310	-0.0994	23.54	-0.34	-0.050			
0.8242	52748.78	3.1300	3.1301	-0.0991	23.54	-0.34	-0.050			
0.8243	52755.12	3.1290	3.1292	-0.0988	23.54	-0.34	-0.050			
0.8244	52761.43	3.1280	3.1280	-0.0985	23.54	-0.34	-0.050			
0.8245	52767.73	3.1270	3.1269	-0.0982	23.54	-0.34	-0.050			
0.8246	52774.01	3.1260	3.1260	-0.0979	23.54	-0.34	-0.050			
0.8247	52780.27	3.1250	3.1250	-0.0977	23.54	-0.34	-0.050			
0.8248	52786.51	3.1240	3.1240	-0.0974	23.54	-0.34	-0.050			
0.8249	52792.81	3.1230	3.1230	-0.0975	23.54	-0.34	-0.050			
0.8250	52799.04	3.1220	3.1220	-0.0971	23.54	-0.34	-0.050			
0.8251	52805.24	3.1210	3.1210	-0.0968	23.54	-0.34	-0.050			
0.8252	52811.43	3.1200	3.1200	-0.0965	23.54	-0.34	-0.050			
0.8253	52817.59	3.1190	3.1188	-0.0961	23.54	-0.34	-0.050			
0.8254	52823.73	3.1180	3.1179	-0.0958	23.54	-0.34	-0.050			
0.8255	52829.74	3.1170	3.1169	-0.0951	23.54	-0.34	-0.050			
0.8256	52835.82	3.1160	3.1160	-0.0948	23.54	-0.34	-0.050			
0.8257	52841.88	3.1150	3.1150	-0.0946	23.54	-0.34	-0.050			
0.8257	52847.93	3.1140	3.1140	-0.0943	23.54	-0.34	-0.050			
0.8258	52853.95	3.1130	3.1130	-0.0940	23.54	-0.34	-0.050			
0.8259	52859.96	3.1120	3.1120	-0.0938	23.54	-0.34	-0.050			
0.8260	52865.94	3.1110	3.1111	-0.0936	23.54	-0.34	-0.050			
0.8261	52871.97	3.1100	3.1101	-0.0935	23.54	-0.34	-0.050			
0.8262	52877.95	3.1090	3.1091	-0.0932	23.54	-0.34	-0.050			
0.8263	52883.90	3.1080	3.1081	-0.0929	23.54	-0.34	-0.050			
0.8264	52889.84	3.1070	3.1070	-0.0926	23.54	-0.34	-0.050			
0.8265	52895.76	3.1060	3.1060	-0.0923	23.54	-0.34	-0.050			
0.8266	52901.66	3.1050	3.1050	-0.0920	23.54	-0.34	-0.050			
0.8267	52907.55	3.1040	3.1040	-0.0917	23.54	-0.34	-0.050			
0.8268	52913.40	3.1030	3.1030	-0.0914	23.54	-0.34	-0.050			
0.8269	52919.24	3.1020	3.1019	-0.0911	23.54	-0.34	-0.050			
0.8270	52925.07	3.1010	3.1010	-0.0908	23.54	-0.34	-0.050			
0.8270	52930.87	3.1000	3.0999	-0.0905	23.54	-0.34	-0.050			
0.8271	52936.66	3.0990	3.0989	-0.0903	23.54	-0.34	-0.050			
0.8272	52942.42	3.0980	3.0979	-0.0900	23.53	-0.35	-0.050			
0.8273	52948.09	3.0970	3.0969	-0.0896	23.53	-0.35	-0.050			
0.8274	52953.91	3.0960	3.0959	-0.0892	23.53	-0.35	-0.050			
0.8275	52959.61	3.0950	3.0950	-0.0889	23.53	-0.35	-0.050			
0.8276	52965.29	3.0940	3.0941	-0.0886	23.53	-0.35	-0.050			
0.8277	52970.95	3.0930	3.0931	-0.0883	23.53	-0.35	-0.050			
0.8278	52976.60	3.0920	3.0921	-0.0880	23.53	-0.35	-0.050			
0.8278	52982.38	3.0910	3.0910	-0.0879	23.53	-0.35	-0.050			
0.8279	52987.80	3.0900	3.0900	-0.0877	23.53	-0.35	-0.050			
0.8280	52993.40	3.0890	3.0890	-0.0875	23.53	-0.35	-0.050			
0.8281	52998.99	3.0880	3.0879	-0.0872	23.53	-0.35	-0.050			
0.8282	53004.56	3.0870	3.0869	-0.0869	23.53	-0.35	-0.050			
0.8283	53010.11	3.0860	3.0860	-0.0866	23.53	-0.35	-0.050			
0.8284	53015.65	3.0850	3.0850	-0.0863	23.53	-0.35	-0.050			
0.8285	53021.00	3.0840	3.0842	-0.0859	23.53	-0.35	-0.050			
0.8285	53026.54	3.0830	3.0831	-0.0856	23.53	-0.35	-0.050			
0.8286	53032.02	3.0820	3.0820	-0.0854	23.53	-0.35	-0.050			
0.8287	53037.48	3.0810	3.0809	-0.0852	23.53	-0.35	-0.050			
0.8288	53042.93	3.0800	3.0799	-0.0850	23.53	-0.35	-0.050			
0.8289	53048.36	3.0790	3.0790	-0.0848	23.52	-0.36	-0.050			
0.8290	53053.78	3.0780	3.0780	-0.0846	23.52	-0.36	-0.050			
0.8290	53059.19	3.0770	3.0770	-0.0844	23.52	-0.36	-0.050			
0.8291	53064.56	3.0760	3.0761	-0.0842	23.52	-0.36	-0.050			
0.8292	53069.94	3.0750	3.0751	-0.0840	23.52	-0.36	-0.050			
0.8293	53075.37	3.0740	3.0741	-0.0836	23.52	-0.36	-0.050			
0.8294	53080.71	3.0730	3.0730	-0.0834	23.52	-0.36	-0.050			
0.8295	53086.04	3.0720	3.0719	-0.0831	23.52	-0.36	-0.050			
0.8296	53091.36	3.0710	3.0710	-0.0829	23.53	-0.35	-0.050			
0.8296	53096.78	3.0700	3.0700	-0.0829	23.53	-0.35	-0.050			
0.8297	53102.08	3.0690	3.0690	-0.0826	23.53	-0.35	-0.050			
0.8298	53107.35	3.0680	3.0680	-0.0823	23.53	-0.35	-0.050			
0.8299	53112.49	3.0670	3.0670	-0.0822	23.53	-0.35	-0.050			
0.8300	53117.74	3.0660	3.0660	-0.0819	23.54	-0.34	-0.050			
0.8300	53122.98	3.0650	3.0650	-0.0817	23.54	-0.34	-0.050			
0.8301	53128.20	3.0640	3.0641	-0.0814	23.54	-0.34	-0.050			
0.8302	53133.29	3.0630	3.0630	-0.0810	23.54	-0.34	-0.050			
0.8303	53138.47	3.0620	3.0619	-0.0809	23.54	-0.34	-0.050			
0.8304	53143.64	3.0610	3.0610	-0.0807	23.54	-0.34	-0.050			
0.8305	53148.94	3.0600	3.0600	-0.0802	23.54	-0.34	-0.050			
0.8305	53154.07	3.0590	3.0589	-0.0800	23.54	-0.34	-0.050			
0.8306	53159.18	3.0580	3.0579	-0.0797	23.54	-0.34	-0.050			
0.8307	53164.27	3.0570	3.0569	-0.0795	23.54	-0.34	-0.050			
0.8308	53169.35	3.0560	3.0560	-0.0792	23.54	-0.34	-0.050			
0.8309	53174.41	3.0550	3.0550	-0.0789	23.54	-0.34	-0.050			
0.8309	53179.52	3.0540	3.0540	-0.0787	23.54	-0.34	-0.050			
0.8310	53184.44	3.0530	3.0531	-0.0786	23.54	-0.34	-0.050			
0.8311	53189.46	3.0520	3.0521	-0.0784	23.54	-0.34	-0.050			
0.8312	53194.47	3.0510	3.0510	-0.0782	23.54	-0.34	-0.050			
0.8312	53199.47	3.0500	3.0501	-0.0779	23.54	-0.34	-0.050			
0.8313	53204.45	3.0490	3.0491	-0.0777	23.54	-0.34	-0.050			
0.8314	53209.41	3.0480	3.0480	-0.0775	23.55	-0.33	-0.050			
0.8315	53214.36	3.0470	3.0470	-0.0773	23.55	-0.33	-0.050			
0.8316	53219.30	3.0460	3.0459	-0.0770	23.55	-0.33	-0.050			
0.8316	53224.21	3.0450	3.0449	-0.0768	23.55	-0.33	-0.050			
0.8317	53229.12	3.0440	3.0439	-0.0766	23.55	-0.33	-0.050			
0.8318	53234.01	3.0430	3.0431	-0.0764	23.55	-0.33	-0.050			
0.8319	53238.89	3.0420	3.0420	-0.0762	23.55	-0.33	-0.050			
0.8319	53243.76	3.0410	3.0409	-0.0760	23.55	-0.33	-0.050			
0.8320	53248.48	3.0400	3.0400	-0.0756	23.55	-0.33	-0.050			
0.8321	53253.31	3.0390	3.0391	-0.0755	23.55	-0.33	-0.050			
0.8322	53258.21	3.0380	3.0381	-0.0752	23.55	-0.33	-0.050			
0.8322	53263.02	3.0370	3.0370	-0.0750	23.56	-0.32	-0.050			
0.8323	53267.81	3.0360	3.0360	-0.0748	23.56	-0.32	-0.050			
0.8324	53272.59	3.0350	3.0350	-0.0747	23.56	-0.32	-0.050			
0.8325	53277.37	3.0340	3.0340	-0.0745	23.56	-0.32	-0.050			
0.8325	53282.27	3.0330	3.0330	-0.0745	23.56	-0.32	-0.050			
0.8326	53287.02	3.0320	3.0320	-0.0742	23.56	-0.32	-0.050			
0.8327	53291.73	3.0310	3.0310	-0.0740	23.56	-0.32	-0.050			
0.8328	53296.46	3.0300	3.0299	-0.0738	23.56	-0.32	-0.050			
0.8328	53301.18	3.0290	3.0289	-0.0735	23.56	-0.32	-0.050			
0.8329	53305.87	3.0280	3.0280	-0.0733	23.56	-0.32	-0.050			
0.8330	53310.56	3.0270	3.0270	-0.0731	23.56	-0.32	-0.050			
0.8331	53315.23	3.0260	3.0260	-0.0728	23.56	-0.32	-0.050			
0.8331	53319.82	3.0250	3.0250	-0.0725	23.56	-0.32	-0.050			
0.8332	53324.45	3.0240	3.0240	-0.0723	23.56	-0.32	-0.050			
0.8333	53329.07	3.0230	3.0230	-0.0721	23.56	-0.32	-0.050			
0.8333	53333.68	3.0220	3.0220	-0.0719	23.56	-0.32	-0.050			
0.8334	53338.28	3.0210	3.0211	-0.0717	23.56	-0.32	-0.050			
0.8335	53342.87	3.0200	3.0201	-0.0715	23.56	-0.32	-0.050			
0.8336	53347.44	3.0190	3.0190	-0.0713	23.56	-0.32	-0.050			
0.8336	53352.00	3.0180	3.0179	-0.0711	23.56	-0.32	-0.050			
0.8337	53356.55	3.0170	3.0170	-0.0709	23.56	-0.32	-0.050			
0.8338	53361.08	3.0160	3.0160	-0.0707	23.56	-0.32	-0.050			
0.8338	53365.54	3.0150	3.0150	-0.0707	23.56	-0.32	-0.050			
0.8339	53370.06	3.0140	3.0140	-0.0705	23.56	-0.32	-0.050			
0.8340	53374.57	3.0130	3.0130	-0.0704	23.56	-0.32	-0.050			
0.8340	53379.07	3.0120	3.0120	-0.0702	23.56	-0.32	-0.050			
0.8341	53383.47	3.0110	3.0110	-0.0700	23.56	-0.32	-0.050			
0.8342	53387.95	3.0100	3.0100	-0.0699	23.56	-0.32	-0.050			
0.8343	53392.41	3.0090	3.0090	-0.0697	23.56	-0.32	-0.050			
0.8343	53396.87	3.0080	3.0080	-0.0696	23.56	-0.32	-0.050			
0.8344	53401.33	3.0070	3.0070	-0.0695	23.56	-0.32	-0.050			
0.8345	53405.77	3.0060	3.0060	-0.0694	23.56	-0.32	-0.050			
0.8345	53410.21	3.0050	3.0050	-0.0693	23.56	-0.32	-0.050			
0.8346	53414.64	3.0040	3.0040	-0.0692	23.56	-0.32	-0.050			
0.8347	53419.01	3.0030	3.0029	-0.0696	23.56	-0.32	-0.050			
0.8347	53423.46	3.0020	3.0019	-0.0696	23.56	-0.32	-0.050			
0.8348	53427.91	3.0010	3.0010	-0.0696	23.56	-0.32	-0.050			
