Relative time (s)	Voltage (V)	Temperature (°C)	
10.960	3.2458	26.86	
70.960	3.2955	26.90	
130.960	3.3075	26.88	
190.960	3.3134	26.84	
250.960	3.3173	26.80	
310.960	3.3200	26.74	
370.960	3.3217	26.70	
430.960	3.3234	26.64	
490.960	3.3246	26.58	
550.960	3.3256	26.52	
610.960	3.3265	26.45	
670.960	3.3274	26.39	
730.960	3.3283	26.34	
790.960	3.3289	26.27	
850.960	3.3295	26.21	
910.960	3.3302	26.16	
970.960	3.3308	26.09	
1030.960	3.3313	26.05	
1079.960	3.3317	25.99	
