Ah_balance (normalized)	Ah_balance (mAh)	Voltage - fit (V)	Voltage -  interpolate (V)	dQ/dV (1/V)	Temperature (°C)	Temperature - diff (°C)	Current (C)	R_DC 0ms (mOhm)	R_DC 50ms (mOhm)	R_DC 50 ms PEC (mOhm)
0.0001	6.21	4.1830	4.1830	-0.2782	24.68	0.00	-0.050			
0.0004	24.93	4.1820	4.1816	-0.3178	24.68	-0.00	-0.050			
0.0007	46.31	4.1810	4.1807	-0.3466	24.67	-0.01	-0.050			
0.0011	69.20	4.1800	4.1798	-0.3687	24.67	-0.01	-0.050			
0.0015	94.48	4.1790	4.1789	-0.3938	24.67	-0.01	-0.050			
0.0019	121.17	4.1780	4.1779	-0.4147	24.67	-0.01	-0.050			
0.0023	149.11	4.1770	4.1769	-0.4329	24.67	-0.01	-0.050			
0.0028	177.91	4.1760	4.1760	-0.4491	24.67	-0.01	-0.050			
0.0033	208.04	4.1750	4.1750	-0.4638	24.66	-0.02	-0.050			
0.0037	239.08	4.1740	4.1740	-0.4766	24.66	-0.02	-0.050			
0.0042	270.43	4.1730	4.1731	-0.4887	24.65	-0.03	-0.050			
0.0047	302.62	4.1720	4.1720	-0.4998	24.65	-0.03	-0.050			
0.0052	335.53	4.1710	4.1710	-0.5098	24.65	-0.03	-0.050			
0.0058	371.32	4.1700	4.1700	-0.5259	24.65	-0.03	-0.050			
0.0063	405.54	4.1690	4.1690	-0.5327	24.65	-0.03	-0.050			
0.0069	440.70	4.1680	4.1680	-0.5406	24.65	-0.03	-0.050			
0.0074	475.94	4.1670	4.1670	-0.5477	24.65	-0.03	-0.050			
0.0080	511.47	4.1660	4.1659	-0.5539	24.65	-0.03	-0.050			
0.0086	547.33	4.1650	4.1650	-0.5588	24.65	-0.03	-0.050			
0.0091	583.36	4.1640	4.1640	-0.5647	24.64	-0.04	-0.050			
0.0097	620.05	4.1630	4.1629	-0.5695	24.63	-0.05	-0.050			
0.0103	656.91	4.1620	4.1620	-0.5748	24.64	-0.04	-0.050			
0.0108	693.83	4.1610	4.1611	-0.5801	24.63	-0.05	-0.050			
0.0114	731.16	4.1600	4.1601	-0.5844	24.63	-0.05	-0.050			
0.0120	768.74	4.1590	4.1590	-0.5887	24.63	-0.05	-0.050			
0.0126	806.83	4.1580	4.1580	-0.5930	24.63	-0.05	-0.050			
0.0132	844.97	4.1570	4.1571	-0.5968	24.63	-0.05	-0.050			
0.0138	883.60	4.1560	4.1560	-0.5998	24.63	-0.05	-0.050			
0.0144	922.08	4.1550	4.1549	-0.6035	24.63	-0.05	-0.050			
0.0150	961.25	4.1540	4.1541	-0.6069	24.63	-0.05	-0.050			
0.0156	1000.29	4.1530	4.1529	-0.6098	24.63	-0.05	-0.050			
0.0162	1039.33	4.1520	4.1521	-0.6124	24.63	-0.05	-0.050			
0.0169	1078.91	4.1510	4.1511	-0.6155	24.63	-0.05	-0.050			
0.0175	1118.48	4.1500	4.1500	-0.6176	24.62	-0.06	-0.050			
0.0181	1158.24	4.1490	4.1490	-0.6207	24.62	-0.06	-0.050			
0.0187	1198.07	4.1480	4.1480	-0.6236	24.63	-0.05	-0.050			
0.0193	1238.03	4.1470	4.1471	-0.6258	24.63	-0.05	-0.050			
0.0200	1278.05	4.1460	4.1459	-0.6285	24.62	-0.06	-0.050	0.421	0.652	
0.0206	1318.40	4.1450	4.1451	-0.6311	24.62	-0.06	-0.050			
0.0212	1358.59	4.1440	4.1440	-0.6345	24.61	-0.07	-0.050			
0.0219	1399.26	4.1430	4.1430	-0.6362	24.61	-0.07	-0.050			
0.0225	1440.19	4.1420	4.1420	-0.6390	24.61	-0.07	-0.050			
0.0231	1480.98	4.1410	4.1410	-0.6410	24.61	-0.07	-0.050			
0.0238	1522.06	4.1400	4.1400	-0.6434	24.61	-0.07	-0.050			
0.0244	1563.52	4.1390	4.1390	-0.6463	24.61	-0.07	-0.050			
0.0251	1605.09	4.1380	4.1380	-0.6487	24.59	-0.09	-0.050			
0.0257	1646.99	4.1370	4.1370	-0.6508	24.59	-0.09	-0.050			
0.0264	1688.81	4.1360	4.1360	-0.6531	24.59	-0.09	-0.050			
0.0270	1730.78	4.1350	4.1350	-0.6559	24.59	-0.09	-0.050			
0.0277	1772.57	4.1340	4.1340	-0.6580	24.59	-0.09	-0.050			
0.0284	1814.81	4.1330	4.1330	-0.6612	24.59	-0.09	-0.050			
0.0290	1857.19	4.1320	4.1320	-0.6631	24.59	-0.09	-0.050			
0.0297	1899.84	4.1310	4.1310	-0.6649	24.59	-0.09	-0.050			
0.0304	1942.51	4.1300	4.1300	-0.6672	24.59	-0.09	-0.050			
0.0310	1985.27	4.1290	4.1290	-0.6689	24.59	-0.09	-0.050			
0.0317	2027.98	4.1280	4.1280	-0.6706	24.59	-0.09	-0.050			
0.0324	2071.09	4.1270	4.1269	-0.6721	24.59	-0.09	-0.050			
0.0330	2113.95	4.1260	4.1259	-0.6751	24.59	-0.09	-0.050			
0.0337	2157.25	4.1250	4.1250	-0.6766	24.59	-0.09	-0.050			
0.0344	2200.73	4.1240	4.1240	-0.6779	24.59	-0.09	-0.050			
0.0351	2244.61	4.1230	4.1231	-0.6794	24.59	-0.09	-0.050			
0.0358	2288.30	4.1220	4.1220	-0.6819	24.60	-0.08	-0.050			
0.0364	2331.82	4.1210	4.1210	-0.6836	24.60	-0.08	-0.050			
0.0371	2375.55	4.1200	4.1200	-0.6855	24.61	-0.07	-0.050			
0.0378	2419.68	4.1190	4.1190	-0.6867	24.61	-0.07	-0.050			
0.0385	2463.71	4.1180	4.1180	-0.6884	24.61	-0.07	-0.050			
0.0392	2507.86	4.1170	4.1170	-0.6899	24.61	-0.07	-0.050			
0.0399	2551.97	4.1160	4.1158	-0.6914	24.61	-0.07	-0.050	0.369	0.577	
0.0406	2596.05	4.1150	4.1150	-0.6923	24.61	-0.07	-0.050			
0.0413	2640.30	4.1140	4.1140	-0.6935	24.61	-0.07	-0.050			
0.0419	2684.76	4.1130	4.1130	-0.6948	24.61	-0.07	-0.050			
0.0426	2729.49	4.1120	4.1121	-0.6960	24.63	-0.05	-0.050			
0.0434	2774.63	4.1110	4.1111	-0.6966	24.63	-0.05	-0.050			
0.0441	2819.38	4.1100	4.1100	-0.6969	24.63	-0.05	-0.050			
0.0448	2864.13	4.1090	4.1090	-0.6974	24.63	-0.05	-0.050			
0.0455	2908.86	4.1080	4.1079	-0.6980	24.63	-0.05	-0.050			
0.0461	2953.51	4.1070	4.1070	-0.6985	24.63	-0.05	-0.050			
0.0468	2998.02	4.1060	4.1061	-0.7002	24.65	-0.03	-0.050			
0.0475	3042.68	4.1050	4.1050	-0.7004	24.65	-0.03	-0.050			
0.0482	3087.57	4.1040	4.1041	-0.7036	24.66	-0.02	-0.050			
0.0489	3132.47	4.1030	4.1031	-0.7049	24.67	-0.01	-0.050			
0.0496	3177.42	4.1020	4.1021	-0.7058	24.67	-0.01	-0.050			
0.0503	3222.20	4.1010	4.1010	-0.7062	24.67	-0.01	-0.050			
0.0510	3267.15	4.1000	4.0998	-0.7087	24.67	-0.01	-0.050			
0.0518	3312.45	4.0990	4.0989	-0.7105	24.67	-0.01	-0.050			
0.0525	3358.02	4.0980	4.0979	-0.7128	24.68	0.00	-0.050			
0.0532	3403.66	4.0970	4.0970	-0.7139	24.69	0.01	-0.050			
0.0539	3449.33	4.0960	4.0961	-0.7163	24.69	0.01	-0.050			
0.0546	3495.30	4.0950	4.0950	-0.7182	24.69	0.01	-0.050			
0.0553	3541.68	4.0940	4.0940	-0.7197	24.70	0.02	-0.050			
0.0561	3587.99	4.0930	4.0929	-0.7214	24.71	0.03	-0.050			
0.0568	3634.81	4.0920	4.0921	-0.7235	24.71	0.03	-0.050			
0.0575	3681.71	4.0910	4.0910	-0.7248	24.71	0.03	-0.050			
0.0583	3728.39	4.0900	4.0901	-0.7260	24.71	0.03	-0.050			
0.0590	3774.83	4.0890	4.0891	-0.7258	24.70	0.02	-0.050			
0.0597	3821.29	4.0880	4.0880	-0.7261	24.70	0.02	-0.050	0.384	0.605	
0.0604	3867.53	4.0870	4.0870	-0.7268	24.71	0.03	-0.050			
0.0612	3913.90	4.0860	4.0860	-0.7273	24.71	0.03	-0.050			
0.0619	3960.20	4.0850	4.0850	-0.7280	24.69	0.01	-0.050			
0.0626	4006.80	4.0840	4.0840	-0.7284	24.69	0.01	-0.050			
0.0633	4053.40	4.0830	4.0831	-0.7293	24.70	0.02	-0.050			
0.0641	4100.07	4.0820	4.0820	-0.7305	24.70	0.02	-0.050			
0.0648	4146.91	4.0810	4.0809	-0.7310	24.70	0.02	-0.050			
0.0655	4193.61	4.0800	4.0800	-0.7316	24.69	0.01	-0.050			
0.0663	4240.31	4.0790	4.0790	-0.7318	24.69	0.01	-0.050			
0.0670	4287.28	4.0780	4.0780	-0.7331	24.69	0.01	-0.050			
0.0677	4334.20	4.0770	4.0770	-0.7338	24.69	0.01	-0.050			
0.0685	4381.50	4.0760	4.0760	-0.7347	24.68	0.00	-0.050			
0.0692	4428.29	4.0750	4.0750	-0.7359	24.67	-0.01	-0.050			
0.0699	4475.78	4.0740	4.0740	-0.7367	24.67	-0.01	-0.050			
0.0707	4522.85	4.0730	4.0731	-0.7384	24.67	-0.01	-0.050			
0.0714	4570.22	4.0720	4.0720	-0.7387	24.67	-0.01	-0.050			
0.0721	4617.25	4.0710	4.0709	-0.7416	24.66	-0.02	-0.050			
0.0729	4664.80	4.0700	4.0700	-0.7423	24.67	-0.01	-0.050			
0.0736	4712.16	4.0690	4.0690	-0.7430	24.66	-0.02	-0.050			
0.0744	4759.70	4.0680	4.0681	-0.7443	24.65	-0.03	-0.050			
0.0751	4807.19	4.0670	4.0670	-0.7448	24.65	-0.03	-0.050			
0.0759	4855.06	4.0660	4.0660	-0.7454	24.65	-0.03	-0.050			
0.0766	4902.71	4.0650	4.0649	-0.7470	24.65	-0.03	-0.050			
0.0774	4950.61	4.0640	4.0640	-0.7483	24.64	-0.04	-0.050			
0.0781	4998.75	4.0630	4.0630	-0.7496	24.63	-0.05	-0.050			
0.0789	5046.78	4.0620	4.0620	-0.7503	24.63	-0.05	-0.050			
0.0796	5095.35	4.0610	4.0610	-0.7509	24.63	-0.05	-0.050			
0.0804	5143.36	4.0600	4.0600	-0.7518	24.63	-0.05	-0.050	0.378	0.570	
0.0811	5191.42	4.0590	4.0589	-0.7528	24.63	-0.05	-0.050			
0.0819	5239.74	4.0580	4.0580	-0.7533	24.62	-0.06	-0.050			
0.0826	5287.85	4.0570	4.0570	-0.7541	24.63	-0.05	-0.050			
0.0834	5335.84	4.0560	4.0559	-0.7558	24.62	-0.06	-0.050			
0.0841	5384.46	4.0550	4.0550	-0.7567	24.63	-0.05	-0.050			
0.0849	5432.58	4.0540	4.0540	-0.7568	24.62	-0.06	-0.050			
0.0856	5481.11	4.0530	4.0530	-0.7582	24.61	-0.07	-0.050			
0.0864	5529.43	4.0520	4.0520	-0.7583	24.61	-0.07	-0.050			
0.0872	5577.70	4.0510	4.0509	-0.7591	24.61	-0.07	-0.050			
0.0879	5626.50	4.0500	4.0499	-0.7610	24.61	-0.07	-0.050			
0.0887	5675.51	4.0490	4.0490	-0.7626	24.62	-0.06	-0.050			
0.0894	5724.25	4.0480	4.0480	-0.7635	24.61	-0.07	-0.050			
0.0902	5773.26	4.0470	4.0471	-0.7645	24.61	-0.07	-0.050			
0.0910	5822.15	4.0460	4.0460	-0.7664	24.61	-0.07	-0.050			
0.0917	5871.07	4.0450	4.0451	-0.7672	24.61	-0.07	-0.050			
0.0925	5920.76	4.0440	4.0440	-0.7676	24.61	-0.07	-0.050			
0.0933	5970.04	4.0430	4.0431	-0.7688	24.61	-0.07	-0.050			
0.0941	6019.28	4.0420	4.0420	-0.7701	24.61	-0.07	-0.050			
0.0948	6068.55	4.0410	4.0410	-0.7714	24.61	-0.07	-0.050			
0.0956	6117.91	4.0400	4.0400	-0.7712	24.61	-0.07	-0.050			
0.0964	6166.86	4.0390	4.0390	-0.7740	24.61	-0.07	-0.050			
0.0971	6216.25	4.0380	4.0379	-0.7756	24.61	-0.07	-0.050			
0.0979	6265.98	4.0370	4.0369	-0.7772	24.61	-0.07	-0.050			
0.0987	6315.58	4.0360	4.0360	-0.7782	24.60	-0.08	-0.050			
0.0995	6365.52	4.0350	4.0351	-0.7792	24.61	-0.07	-0.050			
0.1002	6416.00	4.0340	4.0338	-0.7804	24.59	-0.09	-0.050	0.362	0.625	
0.1010	6465.77	4.0330	4.0328	-0.7818	24.59	-0.09	-0.050			
0.1018	6515.93	4.0320	4.0320	-0.7833	24.59	-0.09	-0.050			
0.1026	6566.22	4.0310	4.0310	-0.7837	24.59	-0.09	-0.050			
0.1034	6616.31	4.0300	4.0299	-0.7853	24.59	-0.09	-0.050			
0.1042	6666.89	4.0290	4.0292	-0.7861	24.59	-0.09	-0.050			
0.1050	6717.47	4.0280	4.0281	-0.7868	24.59	-0.09	-0.050			
0.1057	6767.77	4.0270	4.0271	-0.7876	24.59	-0.09	-0.050			
0.1065	6818.34	4.0260	4.0260	-0.7886	24.60	-0.08	-0.050			
0.1073	6868.81	4.0250	4.0249	-0.7891	24.59	-0.09	-0.050			
0.1081	6919.83	4.0240	4.0239	-0.7905	24.59	-0.09	-0.050			
0.1089	6970.35	4.0230	4.0230	-0.7907	24.59	-0.09	-0.050			
0.1097	7020.68	4.0220	4.0221	-0.7902	24.59	-0.09	-0.050			
0.1105	7071.02	4.0210	4.0210	-0.7908	24.59	-0.09	-0.050			
0.1113	7121.38	4.0200	4.0201	-0.7921	24.59	-0.09	-0.050			
0.1121	7171.69	4.0190	4.0190	-0.7918	24.59	-0.09	-0.050			
0.1129	7222.68	4.0180	4.0180	-0.7928	24.60	-0.08	-0.050			
0.1137	7273.71	4.0170	4.0169	-0.7933	24.59	-0.09	-0.050			
0.1144	7324.49	4.0160	4.0160	-0.7947	24.60	-0.08	-0.050			
0.1152	7375.70	4.0150	4.0150	-0.7955	24.61	-0.07	-0.050			
0.1160	7426.73	4.0140	4.0139	-0.7957	24.61	-0.07	-0.050			
0.1168	7477.54	4.0130	4.0130	-0.7962	24.61	-0.07	-0.050			
0.1176	7528.31	4.0120	4.0120	-0.7965	24.61	-0.07	-0.050			
0.1184	7579.32	4.0110	4.0110	-0.7982	24.61	-0.07	-0.050			
0.1192	7630.34	4.0100	4.0100	-0.7991	24.61	-0.07	-0.050			
0.1200	7681.49	4.0090	4.0089	-0.7990	24.61	-0.07	-0.050	0.364	0.574	
0.1208	7732.82	4.0080	4.0079	-0.7997	24.61	-0.07	-0.050			
0.1216	7783.96	4.0070	4.0070	-0.8009	24.61	-0.07	-0.050			
0.1224	7835.11	4.0060	4.0060	-0.8011	24.61	-0.07	-0.050			
0.1232	7886.33	4.0050	4.0050	-0.8025	24.61	-0.07	-0.050			
0.1240	7937.69	4.0040	4.0040	-0.8041	24.60	-0.08	-0.050			
0.1248	7988.95	4.0030	4.0029	-0.8053	24.60	-0.08	-0.050			
0.1256	8040.30	4.0020	4.0021	-0.8066	24.60	-0.08	-0.050			
0.1264	8091.67	4.0010	4.0010	-0.8080	24.61	-0.07	-0.050			
0.1272	8143.23	4.0000	4.0000	-0.8097	24.61	-0.07	-0.050			
0.1280	8195.13	3.9990	3.9990	-0.8120	24.61	-0.07	-0.050			
0.1289	8247.43	3.9980	3.9980	-0.8145	24.61	-0.07	-0.050			
0.1297	8299.64	3.9970	3.9970	-0.8161	24.60	-0.08	-0.050			
0.1305	8351.96	3.9960	3.9960	-0.8176	24.61	-0.07	-0.050			
0.1313	8404.46	3.9950	3.9951	-0.8186	24.61	-0.07	-0.050			
0.1321	8457.03	3.9940	3.9940	-0.8208	24.60	-0.08	-0.050			
0.1330	8509.57	3.9930	3.9930	-0.8228	24.60	-0.08	-0.050			
0.1338	8562.37	3.9920	3.9920	-0.8235	24.60	-0.08	-0.050			
0.1346	8615.49	3.9910	3.9910	-0.8244	24.59	-0.09	-0.050			
0.1354	8668.45	3.9900	3.9900	-0.8260	24.60	-0.08	-0.050			
0.1363	8721.66	3.9890	3.9890	-0.8270	24.59	-0.09	-0.050			
0.1371	8774.76	3.9880	3.9880	-0.8284	24.59	-0.09	-0.050			
0.1379	8827.83	3.9870	3.9870	-0.8283	24.59	-0.09	-0.050			
0.1388	8881.04	3.9860	3.9860	-0.8282	24.59	-0.09	-0.050			
0.1396	8934.10	3.9850	3.9849	-0.8287	24.59	-0.09	-0.050			
0.1404	8987.06	3.9840	3.9840	-0.8289	24.60	-0.08	-0.050	0.288	0.504	
0.1412	9040.00	3.9830	3.9832	-0.8285	24.59	-0.09	-0.050			
0.1421	9093.12	3.9820	3.9819	-0.8285	24.59	-0.09	-0.050			
0.1429	9146.04	3.9810	3.9810	-0.8289	24.60	-0.08	-0.050			
0.1437	9199.05	3.9800	3.9801	-0.8293	24.59	-0.09	-0.050			
0.1446	9251.81	3.9790	3.9791	-0.8306	24.59	-0.09	-0.050			
0.1454	9304.90	3.9780	3.9779	-0.8313	24.59	-0.09	-0.050			
0.1462	9358.04	3.9770	3.9770	-0.8325	24.59	-0.09	-0.050			
0.1471	9411.37	3.9760	3.9760	-0.8331	24.59	-0.09	-0.050			
0.1479	9464.60	3.9750	3.9750	-0.8341	24.59	-0.09	-0.050			
0.1487	9517.54	3.9740	3.9739	-0.8348	24.59	-0.09	-0.050			
0.1495	9571.19	3.9730	3.9731	-0.8367	24.59	-0.09	-0.050			
0.1504	9624.89	3.9720	3.9719	-0.8371	24.59	-0.09	-0.050			
0.1512	9678.35	3.9710	3.9710	-0.8394	24.58	-0.10	-0.050			
0.1521	9732.09	3.9700	3.9700	-0.8405	24.59	-0.09	-0.050			
0.1529	9786.03	3.9690	3.9689	-0.8416	24.58	-0.10	-0.050			
0.1538	9840.32	3.9680	3.9681	-0.8434	24.58	-0.10	-0.050			
0.1546	9894.01	3.9670	3.9670	-0.8447	24.59	-0.09	-0.050			
0.1554	9948.37	3.9660	3.9659	-0.8464	24.58	-0.10	-0.050			
0.1563	10002.46	3.9650	3.9651	-0.8474	24.59	-0.09	-0.050			
0.1571	10056.97	3.9640	3.9640	-0.8492	24.58	-0.10	-0.050			
0.1580	10111.46	3.9630	3.9630	-0.8496	24.57	-0.11	-0.050			
0.1588	10166.05	3.9620	3.9619	-0.8506	24.57	-0.11	-0.050			
0.1597	10220.53	3.9610	3.9611	-0.8509	24.57	-0.11	-0.050			
0.1605	10274.99	3.9600	3.9600	-0.8510	24.57	-0.11	-0.050	0.286	0.549	
0.1614	10329.50	3.9590	3.9590	-0.8515	24.57	-0.11	-0.050			
0.1623	10384.01	3.9580	3.9580	-0.8526	24.57	-0.11	-0.050			
0.1631	10438.55	3.9570	3.9570	-0.8541	24.56	-0.12	-0.050			
0.1640	10493.32	3.9560	3.9561	-0.8550	24.57	-0.11	-0.050			
0.1648	10548.11	3.9550	3.9549	-0.8554	24.57	-0.11	-0.050			
0.1657	10602.94	3.9540	3.9540	-0.8552	24.56	-0.12	-0.050			
0.1665	10657.90	3.9530	3.9530	-0.8548	24.56	-0.12	-0.050			
0.1674	10712.66	3.9520	3.9520	-0.8555	24.55	-0.13	-0.050			
0.1682	10767.21	3.9510	3.9510	-0.8549	24.55	-0.13	-0.050			
0.1691	10822.58	3.9500	3.9499	-0.8549	24.55	-0.13	-0.050			
0.1700	10877.14	3.9490	3.9490	-0.8554	24.55	-0.13	-0.050			
0.1708	10931.82	3.9480	3.9481	-0.8547	24.55	-0.13	-0.050			
0.1717	10986.02	3.9470	3.9470	-0.8558	24.55	-0.13	-0.050			
0.1725	11040.62	3.9460	3.9461	-0.8568	24.56	-0.12	-0.050			
0.1734	11095.38	3.9450	3.9450	-0.8580	24.56	-0.12	-0.050			
0.1742	11150.45	3.9440	3.9440	-0.8577	24.55	-0.13	-0.050			
0.1751	11205.30	3.9430	3.9430	-0.8591	24.56	-0.12	-0.050			
0.1759	11260.42	3.9420	3.9419	-0.8601	24.55	-0.13	-0.050			
0.1768	11315.22	3.9410	3.9410	-0.8608	24.55	-0.13	-0.050			
0.1777	11370.27	3.9400	3.9399	-0.8610	24.57	-0.11	-0.050			
0.1785	11425.32	3.9390	3.9389	-0.8616	24.56	-0.12	-0.050			
0.1794	11480.56	3.9380	3.9380	-0.8619	24.57	-0.11	-0.050			
0.1802	11535.66	3.9370	3.9370	-0.8629	24.57	-0.11	-0.050	0.387	0.617	
0.1811	11591.21	3.9360	3.9360	-0.8637	24.56	-0.12	-0.050			
0.1820	11647.05	3.9350	3.9350	-0.8645	24.56	-0.12	-0.050			
0.1829	11702.74	3.9340	3.9339	-0.8649	24.57	-0.11	-0.050			
0.1837	11758.68	3.9330	3.9331	-0.8637	24.56	-0.12	-0.050			
0.1846	11814.21	3.9320	3.9320	-0.8622	24.58	-0.10	-0.050			
0.1855	11869.21	3.9310	3.9311	-0.8614	24.59	-0.09	-0.050			
0.1863	11924.67	3.9300	3.9300	-0.8609	24.59	-0.09	-0.050			
0.1872	11979.61	3.9290	3.9290	-0.8589	24.59	-0.09	-0.050			
0.1880	12034.09	3.9280	3.9280	-0.8593	24.59	-0.09	-0.050			
0.1889	12088.92	3.9270	3.9272	-0.8571	24.59	-0.09	-0.050			
0.1897	12143.84	3.9260	3.9261	-0.8568	24.59	-0.09	-0.050			
0.1906	12198.35	3.9250	3.9250	-0.8570	24.59	-0.09	-0.050			
0.1915	12253.16	3.9240	3.9240	-0.8574	24.59	-0.09	-0.050			
0.1923	12307.97	3.9230	3.9229	-0.8559	24.59	-0.09	-0.050			
0.1932	12362.44	3.9220	3.9219	-0.8553	24.59	-0.09	-0.050			
0.1940	12416.90	3.9210	3.9211	-0.8553	24.58	-0.10	-0.050			
0.1949	12471.73	3.9200	3.9199	-0.8558	24.59	-0.09	-0.050			
0.1957	12526.03	3.9190	3.9190	-0.8561	24.59	-0.09	-0.050			
0.1966	12580.89	3.9180	3.9180	-0.8564	24.59	-0.09	-0.050			
0.1974	12635.94	3.9170	3.9170	-0.8554	24.59	-0.09	-0.050			
0.1983	12691.10	3.9160	3.9160	-0.8565	24.59	-0.09	-0.050			
0.1992	12746.21	3.9150	3.9151	-0.8563	24.60	-0.08	-0.050			
0.2000	12801.27	3.9140	3.9139	-0.8561	24.60	-0.08	-0.050	0.264	0.547	
0.2009	12856.31	3.9130	3.9130	-0.8561	24.61	-0.07	-0.050			
0.2017	12911.07	3.9120	3.9119	-0.8564	24.60	-0.08	-0.050			
0.2026	12965.55	3.9110	3.9111	-0.8544	24.61	-0.07	-0.050			
0.2034	13020.28	3.9100	3.9099	-0.8546	24.61	-0.07	-0.050			
0.2043	13074.86	3.9090	3.9091	-0.8541	24.59	-0.09	-0.050			
0.2051	13129.08	3.9080	3.9080	-0.8537	24.60	-0.08	-0.050			
0.2060	13183.75	3.9070	3.9069	-0.8534	24.59	-0.09	-0.050			
0.2069	13238.79	3.9060	3.9061	-0.8534	24.59	-0.09	-0.050			
0.2077	13292.91	3.9050	3.9051	-0.8526	24.59	-0.09	-0.050			
0.2086	13347.46	3.9040	3.9038	-0.8523	24.59	-0.09	-0.050			
0.2094	13402.09	3.9030	3.9030	-0.8532	24.59	-0.09	-0.050			
0.2103	13456.55	3.9020	3.9020	-0.8534	24.59	-0.09	-0.050			
0.2111	13510.70	3.9010	3.9009	-0.8537	24.58	-0.10	-0.050			
0.2120	13565.42	3.9000	3.9000	-0.8537	24.57	-0.11	-0.050			
0.2128	13620.07	3.8990	3.8990	-0.8535	24.58	-0.10	-0.050			
0.2137	13674.95	3.8980	3.8980	-0.8533	24.59	-0.09	-0.050			
0.2145	13730.11	3.8970	3.8971	-0.8541	24.57	-0.11	-0.050			
0.2154	13784.83	3.8960	3.8958	-0.8534	24.57	-0.11	-0.050			
0.2162	13839.48	3.8950	3.8950	-0.8532	24.58	-0.10	-0.050			
0.2171	13894.25	3.8940	3.8939	-0.8532	24.58	-0.10	-0.050			
0.2180	13948.93	3.8930	3.8929	-0.8516	24.59	-0.09	-0.050			
0.2188	14003.20	3.8920	3.8920	-0.8512	24.58	-0.10	-0.050			
0.2197	14057.62	3.8910	3.8911	-0.8507	24.57	-0.11	-0.050			
0.2205	14112.08	3.8900	3.8901	-0.8510	24.57	-0.11	-0.050	0.373	0.668	
0.2213	14166.39	3.8890	3.8890	-0.8506	24.57	-0.11	-0.050			
0.2222	14220.85	3.8880	3.8880	-0.8503	24.57	-0.11	-0.050			
0.2230	14275.09	3.8870	3.8870	-0.8499	24.57	-0.11	-0.050			
0.2239	14329.42	3.8860	3.8860	-0.8505	24.56	-0.12	-0.050			
0.2247	14383.57	3.8850	3.8850	-0.8499	24.56	-0.12	-0.050			
0.2256	14437.98	3.8840	3.8840	-0.8490	24.55	-0.13	-0.050			
0.2264	14492.00	3.8830	3.8830	-0.8493	24.55	-0.13	-0.050			
0.2273	14546.23	3.8820	3.8821	-0.8496	24.56	-0.12	-0.050			
0.2281	14600.62	3.8810	3.8810	-0.8498	24.56	-0.12	-0.050			
0.2290	14654.95	3.8800	3.8801	-0.8511	24.57	-0.11	-0.050			
0.2298	14710.07	3.8790	3.8790	-0.8510	24.57	-0.11	-0.050			
0.2307	14764.59	3.8780	3.8780	-0.8510	24.57	-0.11	-0.050			
0.2315	14818.76	3.8770	3.8769	-0.8526	24.58	-0.10	-0.050			
0.2324	14873.35	3.8760	3.8761	-0.8531	24.59	-0.09	-0.050			
0.2332	14927.87	3.8750	3.8750	-0.8534	24.58	-0.10	-0.050			
0.2341	14982.48	3.8740	3.8739	-0.8534	24.59	-0.09	-0.050			
0.2350	15037.42	3.8730	3.8730	-0.8535	24.59	-0.09	-0.050			
0.2358	15091.96	3.8720	3.8721	-0.8532	24.59	-0.09	-0.050			
0.2367	15146.57	3.8710	3.8709	-0.8537	24.59	-0.09	-0.050			
0.2375	15201.02	3.8700	3.8701	-0.8546	24.60	-0.08	-0.050			
0.2384	15255.88	3.8690	3.8689	-0.8551	24.61	-0.07	-0.050			
0.2392	15311.00	3.8680	3.8678	-0.8538	24.61	-0.07	-0.050			
0.2401	15365.86	3.8670	3.8670	-0.8535	24.61	-0.07	-0.050	0.329	0.535	
0.2409	15420.17	3.8660	3.8660	-0.8528	24.61	-0.07	-0.050			
0.2418	15474.98	3.8650	3.8650	-0.8528	24.61	-0.07	-0.050			
0.2427	15530.02	3.8640	3.8640	-0.8527	24.62	-0.06	-0.050			
0.2435	15584.53	3.8630	3.8629	-0.8506	24.62	-0.06	-0.050			
0.2444	15639.02	3.8620	3.8620	-0.8495	24.63	-0.05	-0.050			
0.2452	15693.75	3.8610	3.8610	-0.8486	24.63	-0.05	-0.050			
0.2461	15747.94	3.8600	3.8601	-0.8469	24.63	-0.05	-0.050			
0.2469	15802.71	3.8590	3.8590	-0.8456	24.63	-0.05	-0.050			
0.2478	15856.84	3.8580	3.8579	-0.8429	24.64	-0.04	-0.050			
0.2486	15910.51	3.8570	3.8570	-0.8389	24.65	-0.03	-0.050			
0.2495	15964.84	3.8560	3.8560	-0.8368	24.65	-0.03	-0.050			
0.2503	16018.23	3.8550	3.8550	-0.8345	24.65	-0.03	-0.050			
0.2511	16071.59	3.8540	3.8540	-0.8319	24.65	-0.03	-0.050			
0.2520	16124.91	3.8530	3.8530	-0.8292	24.65	-0.03	-0.050			
0.2528	16177.86	3.8520	3.8520	-0.8249	24.66	-0.02	-0.050			
0.2536	16230.55	3.8510	3.8510	-0.8211	24.65	-0.03	-0.050			
0.2544	16282.85	3.8500	3.8501	-0.8177	24.66	-0.02	-0.050			
0.2552	16335.35	3.8490	3.8490	-0.8138	24.66	-0.02	-0.050			
0.2561	16387.94	3.8480	3.8479	-0.8106	24.67	-0.01	-0.050			
0.2569	16439.95	3.8470	3.8470	-0.8043	24.67	-0.01	-0.050			
0.2577	16491.16	3.8460	3.8460	-0.7995	24.67	-0.01	-0.050			
0.2585	16542.10	3.8450	3.8450	-0.7955	24.67	-0.01	-0.050			
0.2593	16593.07	3.8440	3.8440	-0.7914	24.69	0.01	-0.050			
0.2601	16643.60	3.8430	3.8430	-0.7867	24.69	0.01	-0.050	0.412	0.663	
0.2608	16693.78	3.8420	3.8420	-0.7810	24.69	0.01	-0.050			
0.2616	16743.82	3.8410	3.8409	-0.7761	24.69	0.01	-0.050			
0.2624	16793.56	3.8400	3.8401	-0.7703	24.69	0.01	-0.050			
0.2632	16842.97	3.8390	3.8390	-0.7650	24.69	0.01	-0.050			
0.2639	16891.99	3.8380	3.8380	-0.7593	24.69	0.01	-0.050			
0.2647	16940.24	3.8370	3.8370	-0.7538	24.70	0.02	-0.050			
0.2654	16988.42	3.8360	3.8359	-0.7475	24.70	0.02	-0.050			
0.2662	17035.70	3.8350	3.8350	-0.7405	24.70	0.02	-0.050			
0.2669	17083.07	3.8340	3.8340	-0.7343	24.71	0.03	-0.050			
0.2677	17129.92	3.8330	3.8331	-0.7286	24.70	0.02	-0.050			
0.2684	17176.46	3.8320	3.8319	-0.7229	24.69	0.01	-0.050			
0.2691	17222.41	3.8310	3.8311	-0.7172	24.69	0.01	-0.050			
0.2698	17267.84	3.8300	3.8300	-0.7119	24.69	0.01	-0.050			
0.2705	17313.46	3.8290	3.8290	-0.7058	24.69	0.01	-0.050			
0.2712	17358.67	3.8280	3.8280	-0.7004	24.69	0.01	-0.050			
0.2719	17403.39	3.8270	3.8271	-0.6939	24.69	0.01	-0.050			
0.2726	17447.46	3.8260	3.8260	-0.6876	24.69	0.01	-0.050			
0.2733	17490.72	3.8250	3.8251	-0.6814	24.69	0.01	-0.050			
0.2740	17534.23	3.8240	3.8240	-0.6752	24.69	0.01	-0.050			
0.2746	17577.28	3.8230	3.8229	-0.6704	24.69	0.01	-0.050			
0.2753	17620.16	3.8220	3.8220	-0.6651	24.69	0.01	-0.050			
0.2760	17662.37	3.8210	3.8210	-0.6593	24.69	0.01	-0.050			
0.2766	17704.56	3.8200	3.8201	-0.6542	24.68	0.00	-0.050			
0.2773	17746.33	3.8190	3.8191	-0.6487	24.67	-0.01	-0.050			
0.2779	17787.46	3.8180	3.8179	-0.6430	24.67	-0.01	-0.050			
0.2786	17828.26	3.8170	3.8169	-0.6378	24.67	-0.01	-0.050			
0.2792	17868.70	3.8160	3.8159	-0.6325	24.67	-0.01	-0.050			
0.2798	17908.95	3.8150	3.8150	-0.6279	24.67	-0.01	-0.050			
0.2805	17948.93	3.8140	3.8140	-0.6235	24.66	-0.02	-0.050	0.432	0.592	
0.2811	17988.57	3.8130	3.8129	-0.6185	24.65	-0.03	-0.050			
0.2817	18027.67	3.8120	3.8121	-0.6136	24.65	-0.03	-0.050			
0.2823	18066.59	3.8110	3.8110	-0.6093	24.65	-0.03	-0.050			
0.2829	18105.04	3.8100	3.8099	-0.6059	24.65	-0.03	-0.050			
0.2835	18143.43	3.8090	3.8090	-0.6033	24.65	-0.03	-0.050			
0.2841	18182.03	3.8080	3.8079	-0.6013	24.65	-0.03	-0.050			
0.2847	18219.90	3.8070	3.8070	-0.5986	24.65	-0.03	-0.050			
0.2853	18257.80	3.8060	3.8060	-0.5969	24.64	-0.04	-0.050			
0.2859	18295.20	3.8050	3.8049	-0.5956	24.63	-0.05	-0.050			
0.2865	18332.90	3.8040	3.8041	-0.5945	24.63	-0.05	-0.050			
0.2870	18370.76	3.8030	3.8031	-0.5945	24.63	-0.05	-0.050			
0.2876	18408.35	3.8020	3.8020	-0.5938	24.63	-0.05	-0.050			
0.2882	18446.21	3.8010	3.8009	-0.5945	24.63	-0.05	-0.050			
0.2888	18483.97	3.8000	3.8000	-0.5951	24.63	-0.05	-0.050			
0.2894	18521.88	3.7990	3.7990	-0.5962	24.63	-0.05	-0.050			
0.2900	18559.88	3.7980	3.7980	-0.5975	24.63	-0.05	-0.050			
0.2906	18597.97	3.7970	3.7970	-0.5988	24.63	-0.05	-0.050			
0.2912	18636.36	3.7960	3.7960	-0.6001	24.62	-0.06	-0.050			
0.2918	18674.85	3.7950	3.7951	-0.6019	24.61	-0.07	-0.050			
0.2924	18713.21	3.7940	3.7939	-0.6044	24.61	-0.07	-0.050			
0.2930	18751.73	3.7930	3.7930	-0.6074	24.61	-0.07	-0.050			
0.2936	18790.39	3.7920	3.7920	-0.6109	24.61	-0.07	-0.050			
0.2942	18829.37	3.7910	3.7910	-0.6143	24.59	-0.09	-0.050			
0.2948	18868.74	3.7900	3.7900	-0.6167	24.59	-0.09	-0.050			
0.2954	18907.72	3.7890	3.7890	-0.6208	24.59	-0.09	-0.050			
0.2961	18947.24	3.7880	3.7880	-0.6251	24.59	-0.09	-0.050			
0.2967	18987.03	3.7870	3.7870	-0.6299	24.57	-0.11	-0.050			
0.2973	19027.02	3.7860	3.7860	-0.6347	24.58	-0.10	-0.050			
0.2979	19067.48	3.7850	3.7849	-0.6399	24.59	-0.09	-0.050			
0.2986	19108.38	3.7840	3.7839	-0.6451	24.59	-0.09	-0.050			
0.2992	19149.72	3.7830	3.7830	-0.6517	24.57	-0.11	-0.050			
0.2999	19191.33	3.7820	3.7820	-0.6581	24.57	-0.11	-0.050			
0.3005	19233.40	3.7810	3.7810	-0.6651	24.57	-0.11	-0.050	0.413	0.568	
0.3012	19276.03	3.7800	3.7799	-0.6718	24.57	-0.11	-0.050			
0.3019	19319.15	3.7790	3.7790	-0.6791	24.57	-0.11	-0.050			
0.3025	19362.70	3.7780	3.7780	-0.6868	24.57	-0.11	-0.050			
0.3032	19406.78	3.7770	3.7770	-0.6950	24.57	-0.11	-0.050			
0.3039	19451.52	3.7760	3.7761	-0.7030	24.57	-0.11	-0.050			
0.3046	19496.86	3.7750	3.7750	-0.7107	24.57	-0.11	-0.050			
0.3053	19542.16	3.7740	3.7740	-0.7191	24.57	-0.11	-0.050			
0.3061	19588.06	3.7730	3.7730	-0.7274	24.57	-0.11	-0.050			
0.3068	19634.80	3.7720	3.7720	-0.7361	24.57	-0.11	-0.050			
0.3075	19682.22	3.7710	3.7710	-0.7449	24.57	-0.11	-0.050			
0.3083	19730.24	3.7700	3.7701	-0.7542	24.57	-0.11	-0.050			
0.3090	19778.60	3.7690	3.7690	-0.7624	24.57	-0.11	-0.050			
0.3098	19827.68	3.7680	3.7680	-0.7716	24.56	-0.12	-0.050			
0.3106	19877.20	3.7670	3.7671	-0.7808	24.55	-0.13	-0.050			
0.3114	19927.40	3.7660	3.7660	-0.7902	24.55	-0.13	-0.050			
0.3122	19978.16	3.7650	3.7650	-0.8004	24.55	-0.13	-0.050			
0.3130	20029.58	3.7640	3.7640	-0.8106	24.55	-0.13	-0.050			
0.3138	20081.52	3.7630	3.7630	-0.8212	24.54	-0.14	-0.050			
0.3146	20134.27	3.7620	3.7621	-0.8308	24.55	-0.13	-0.050			
0.3154	20187.57	3.7610	3.7610	-0.8413	24.54	-0.14	-0.050			
0.3163	20241.95	3.7600	3.7600	-0.8518	24.54	-0.14	-0.050			
0.3171	20296.76	3.7590	3.7590	-0.8619	24.55	-0.13	-0.050			
0.3180	20352.35	3.7580	3.7580	-0.8715	24.54	-0.14	-0.050			
0.3189	20408.55	3.7570	3.7570	-0.8814	24.54	-0.14	-0.050			
0.3198	20465.60	3.7560	3.7561	-0.8915	24.54	-0.14	-0.050			
0.3207	20522.90	3.7550	3.7550	-0.9015	24.55	-0.13	-0.050	0.388	0.653	
0.3216	20581.03	3.7540	3.7540	-0.9109	24.54	-0.14	-0.050			
0.3225	20639.82	3.7530	3.7530	-0.9207	24.55	-0.13	-0.050			
0.3234	20698.85	3.7520	3.7520	-0.9306	24.54	-0.14	-0.050			
0.3244	20759.25	3.7510	3.7511	-0.9398	24.53	-0.15	-0.050			
0.3253	20820.25	3.7500	3.7499	-0.9481	24.55	-0.13	-0.050			
0.3263	20881.23	3.7490	3.7490	-0.9558	24.54	-0.14	-0.050			
0.3272	20942.94	3.7480	3.7479	-0.9640	24.54	-0.14	-0.050			
0.3282	21005.04	3.7470	3.7470	-0.9716	24.54	-0.14	-0.050			
0.3292	21067.43	3.7460	3.7460	-0.9796	24.55	-0.13	-0.050			
0.3302	21130.10	3.7450	3.7451	-0.9874	24.55	-0.13	-0.050			
0.3312	21193.61	3.7440	3.7440	-0.9958	24.55	-0.13	-0.050			
0.3321	21257.34	3.7430	3.7430	-1.0040	24.56	-0.12	-0.050			
0.3332	21321.92	3.7420	3.7420	-1.0124	24.55	-0.13	-0.050			
0.3342	21386.60	3.7410	3.7409	-1.0213	24.56	-0.12	-0.050			
0.3352	21452.24	3.7400	3.7399	-1.0302	24.55	-0.13	-0.050			
0.3362	21518.54	3.7390	3.7391	-1.0379	24.55	-0.13	-0.050			
0.3373	21585.28	3.7380	3.7379	-1.0462	24.55	-0.13	-0.050			
0.3383	21652.31	3.7370	3.7370	-1.0544	24.55	-0.13	-0.050			
0.3394	21720.17	3.7360	3.7361	-1.0622	24.55	-0.13	-0.050			
0.3404	21788.25	3.7350	3.7350	-1.0705	24.55	-0.13	-0.050	0.436	0.560	
0.3415	21857.14	3.7340	3.7339	-1.0791	24.55	-0.13	-0.050			
0.3426	21926.67	3.7330	3.7330	-1.0868	24.55	-0.13	-0.050			
0.3437	21996.70	3.7320	3.7320	-1.0946	24.55	-0.13	-0.050			
0.3448	22067.79	3.7310	3.7310	-1.1033	24.55	-0.13	-0.050			
0.3459	22138.81	3.7300	3.7301	-1.1115	24.55	-0.13	-0.050			
0.3470	22209.82	3.7290	3.7290	-1.1189	24.55	-0.13	-0.050			
0.3481	22281.42	3.7280	3.7281	-1.1270	24.55	-0.13	-0.050			
0.3493	22353.98	3.7270	3.7270	-1.1340	24.55	-0.13	-0.050			
0.3504	22426.76	3.7260	3.7260	-1.1408	24.55	-0.13	-0.050			
0.3516	22499.82	3.7250	3.7251	-1.1483	24.55	-0.13	-0.050			
0.3527	22573.71	3.7240	3.7240	-1.1551	24.56	-0.12	-0.050			
0.3539	22647.56	3.7230	3.7231	-1.1635	24.54	-0.14	-0.050			
0.3550	22722.06	3.7220	3.7220	-1.1716	24.55	-0.13	-0.050			
0.3562	22796.98	3.7210	3.7210	-1.1795	24.55	-0.13	-0.050			
0.3574	22872.86	3.7200	3.7200	-1.1884	24.54	-0.14	-0.050			
0.3586	22949.27	3.7190	3.7190	-1.1970	24.54	-0.14	-0.050			
0.3598	23025.89	3.7180	3.7180	-1.2053	24.53	-0.15	-0.050	0.364	0.520	
0.3610	23103.37	3.7170	3.7169	-1.2134	24.53	-0.15	-0.050			
0.3622	23181.13	3.7160	3.7159	-1.2228	24.53	-0.15	-0.050			
0.3634	23259.61	3.7150	3.7150	-1.2312	24.53	-0.15	-0.050			
0.3647	23338.79	3.7140	3.7139	-1.2410	24.53	-0.15	-0.050			
0.3659	23418.52	3.7130	3.7130	-1.2501	24.53	-0.15	-0.050			
0.3672	23498.89	3.7120	3.7120	-1.2584	24.53	-0.15	-0.050			
0.3684	23579.95	3.7110	3.7110	-1.2661	24.53	-0.15	-0.050			
0.3697	23661.09	3.7100	3.7100	-1.2736	24.53	-0.15	-0.050			
0.3710	23742.65	3.7090	3.7090	-1.2830	24.52	-0.16	-0.050			
0.3723	23825.34	3.7080	3.7080	-1.2920	24.52	-0.16	-0.050			
0.3736	23908.29	3.7070	3.7070	-1.3013	24.52	-0.16	-0.050			
0.3749	23991.68	3.7060	3.7060	-1.3112	24.52	-0.16	-0.050			
0.3762	24075.16	3.7050	3.7050	-1.3223	24.52	-0.16	-0.050			
0.3775	24159.88	3.7040	3.7041	-1.3325	24.52	-0.16	-0.050			
0.3788	24244.72	3.7030	3.7030	-1.3427	24.53	-0.15	-0.050			
0.3802	24330.93	3.7020	3.7020	-1.3540	24.53	-0.15	-0.050	0.390	0.579	
0.3815	24418.02	3.7010	3.7010	-1.3643	24.52	-0.16	-0.050			
0.3829	24505.91	3.7000	3.7000	-1.3742	24.52	-0.16	-0.050			
0.3843	24594.39	3.6990	3.6991	-1.3839	24.53	-0.15	-0.050			
0.3857	24683.46	3.6980	3.6980	-1.3936	24.52	-0.16	-0.050			
0.3871	24772.63	3.6970	3.6970	-1.4058	24.53	-0.15	-0.050			
0.3885	24862.85	3.6960	3.6960	-1.4166	24.52	-0.16	-0.050			
0.3899	24954.26	3.6950	3.6951	-1.4276	24.53	-0.15	-0.050			
0.3914	25046.52	3.6940	3.6941	-1.4367	24.53	-0.15	-0.050			
0.3928	25139.23	3.6930	3.6930	-1.4474	24.53	-0.15	-0.050			
0.3943	25232.38	3.6920	3.6920	-1.4583	24.53	-0.15	-0.050			
0.3957	25326.08	3.6910	3.6909	-1.4683	24.53	-0.15	-0.050			
0.3972	25419.42	3.6900	3.6900	-1.4791	24.53	-0.15	-0.050			
0.3987	25513.97	3.6890	3.6890	-1.4901	24.53	-0.15	-0.050			
0.4001	25609.37	3.6880	3.6881	-1.5022	24.52	-0.16	-0.050	0.411	0.636	
0.4016	25704.87	3.6870	3.6870	-1.5145	24.52	-0.16	-0.050			
0.4031	25801.49	3.6860	3.6861	-1.5268	24.52	-0.16	-0.050			
0.4047	25898.95	3.6850	3.6850	-1.5402	24.51	-0.17	-0.050			
0.4062	25997.42	3.6840	3.6840	-1.5559	24.53	-0.15	-0.050			
0.4078	26097.22	3.6830	3.6829	-1.5705	24.52	-0.16	-0.050			
0.4093	26198.20	3.6820	3.6820	-1.5869	24.51	-0.17	-0.050			
0.4109	26300.05	3.6810	3.6809	-1.6034	24.53	-0.15	-0.050			
0.4125	26402.95	3.6800	3.6801	-1.6200	24.52	-0.16	-0.050			
0.4142	26506.71	3.6790	3.6789	-1.6365	24.51	-0.17	-0.050			
0.4158	26611.67	3.6780	3.6780	-1.6533	24.53	-0.15	-0.050			
0.4175	26717.97	3.6770	3.6770	-1.6696	24.52	-0.16	-0.050			
0.4191	26825.54	3.6760	3.6760	-1.6895	24.51	-0.17	-0.050			
0.4208	26934.37	3.6750	3.6750	-1.7085	24.53	-0.15	-0.050	0.351	0.665	
0.4226	27043.98	3.6740	3.6741	-1.7274	24.51	-0.17	-0.050			
0.4243	27155.09	3.6730	3.6730	-1.7446	24.51	-0.17	-0.050			
0.4261	27267.57	3.6720	3.6720	-1.7617	24.52	-0.16	-0.050			
0.4278	27380.82	3.6710	3.6709	-1.7793	24.51	-0.17	-0.050			
0.4296	27495.19	3.6700	3.6700	-1.7970	24.52	-0.16	-0.050			
0.4314	27610.50	3.6690	3.6690	-1.8170	24.51	-0.17	-0.050			
0.4332	27726.97	3.6680	3.6680	-1.8365	24.51	-0.17	-0.050			
0.4351	27844.43	3.6670	3.6670	-1.8575	24.51	-0.17	-0.050			
0.4369	27963.39	3.6660	3.6661	-1.8789	24.51	-0.17	-0.050			
0.4388	28084.19	3.6650	3.6651	-1.8997	24.51	-0.17	-0.050			
0.4407	28205.86	3.6640	3.6640	-1.9216	24.52	-0.16	-0.050	0.495	0.616	
0.4426	28329.23	3.6630	3.6629	-1.9443	24.51	-0.17	-0.050			
0.4446	28454.02	3.6620	3.6620	-1.9668	24.52	-0.16	-0.050			
0.4466	28580.25	3.6610	3.6609	-1.9891	24.53	-0.15	-0.050			
0.4486	28708.40	3.6600	3.6599	-2.0125	24.53	-0.15	-0.050			
0.4506	28837.29	3.6590	3.6590	-2.0377	24.55	-0.13	-0.050			
0.4526	28968.52	3.6580	3.6581	-2.0605	24.55	-0.13	-0.050			
0.4547	29101.40	3.6570	3.6569	-2.0841	24.56	-0.12	-0.050			
0.4568	29236.00	3.6560	3.6561	-2.1064	24.58	-0.10	-0.050			
0.4589	29372.07	3.6550	3.6550	-2.1291	24.59	-0.09	-0.050			
0.4611	29509.70	3.6540	3.6540	-2.1523	24.59	-0.09	-0.050	0.287	0.564	
0.4633	29648.34	3.6530	3.6530	-2.1771	24.60	-0.08	-0.050			
0.4654	29788.20	3.6520	3.6519	-2.2006	24.61	-0.07	-0.050			
0.4676	29929.41	3.6510	3.6510	-2.2238	24.59	-0.09	-0.050			
0.4699	30072.28	3.6500	3.6500	-2.2468	24.60	-0.08	-0.050			
0.4721	30216.70	3.6490	3.6491	-2.2692	24.59	-0.09	-0.050			
0.4744	30362.69	3.6480	3.6480	-2.2911	24.59	-0.09	-0.050			
0.4767	30509.86	3.6470	3.6470	-2.3141	24.59	-0.09	-0.050			
0.4791	30659.35	3.6460	3.6459	-2.3359	24.59	-0.09	-0.050			
0.4814	30809.54	3.6450	3.6449	-2.3579	24.59	-0.09	-0.050	0.283	0.537	
0.4838	30961.47	3.6440	3.6440	-2.3758	24.59	-0.09	-0.050			
0.4862	31114.62	3.6430	3.6431	-2.3968	24.60	-0.08	-0.050			
0.4886	31269.26	3.6420	3.6420	-2.4163	24.59	-0.09	-0.050			
0.4910	31425.28	3.6410	3.6410	-2.4334	24.59	-0.09	-0.050			
0.4935	31581.78	3.6400	3.6400	-2.4517	24.58	-0.10	-0.050			
0.4959	31740.17	3.6390	3.6390	-2.4726	24.57	-0.11	-0.050			
0.4984	31899.21	3.6380	3.6380	-2.4910	24.57	-0.11	-0.050			
0.5009	32059.50	3.6370	3.6369	-2.5082	24.56	-0.12	-0.050	0.413	0.618	
0.5034	32220.37	3.6360	3.6360	-2.5238	24.55	-0.13	-0.050			
0.5060	32382.12	3.6350	3.6349	-2.5373	24.55	-0.13	-0.050			
0.5085	32544.14	3.6340	3.6340	-2.5543	24.54	-0.14	-0.050			
0.5111	32708.05	3.6330	3.6330	-2.5717	24.55	-0.13	-0.050			
0.5137	32873.91	3.6320	3.6320	-2.5872	24.55	-0.13	-0.050			
0.5163	33040.55	3.6310	3.6310	-2.6023	24.55	-0.13	-0.050			
0.5189	33208.19	3.6300	3.6300	-2.6152	24.54	-0.14	-0.050			
0.5215	33376.50	3.6290	3.6291	-2.6290	24.53	-0.15	-0.050	0.465	0.709	
0.5242	33545.91	3.6280	3.6280	-2.6418	24.54	-0.14	-0.050			
0.5268	33717.53	3.6270	3.6270	-2.6493	24.54	-0.14	-0.050			
0.5295	33888.10	3.6260	3.6260	-2.6540	24.53	-0.15	-0.050			
0.5322	34059.84	3.6250	3.6250	-2.6576	24.54	-0.14	-0.050			
0.5349	34231.41	3.6240	3.6239	-2.6585	24.54	-0.14	-0.050			
0.5375	34402.97	3.6230	3.6230	-2.6540	24.53	-0.15	-0.050			
0.5402	34574.58	3.6220	3.6220	-2.6473	24.53	-0.15	-0.050	0.398	0.632	
0.5429	34745.65	3.6210	3.6211	-2.6358	24.55	-0.13	-0.050			
0.5456	34916.39	3.6200	3.6200	-2.6225	24.54	-0.14	-0.050			
0.5482	35085.71	3.6190	3.6190	-2.6029	24.53	-0.15	-0.050			
0.5509	35255.07	3.6180	3.6179	-2.5768	24.52	-0.16	-0.050			
0.5535	35421.37	3.6170	3.6171	-2.5441	24.53	-0.15	-0.050			
0.5560	35586.49	3.6160	3.6161	-2.5120	24.54	-0.14	-0.050			
0.5586	35748.92	3.6150	3.6149	-2.4718	24.53	-0.15	-0.050			
0.5611	35908.33	3.6140	3.6140	-2.4278	24.53	-0.15	-0.050	0.355	0.574	
0.5635	36064.09	3.6130	3.6130	-2.3801	24.53	-0.15	-0.050			
0.5659	36215.78	3.6120	3.6119	-2.3297	24.53	-0.15	-0.050			
0.5682	36364.17	3.6110	3.6110	-2.2807	24.53	-0.15	-0.050			
0.5704	36508.35	3.6100	3.6101	-2.2250	24.53	-0.15	-0.050			
0.5727	36650.05	3.6090	3.6090	-2.1725	24.53	-0.15	-0.050			
0.5748	36786.12	3.6080	3.6080	-2.1213	24.54	-0.14	-0.050			
0.5769	36918.89	3.6070	3.6071	-2.0721	24.53	-0.15	-0.050			
0.5789	37047.30	3.6060	3.6059	-2.0267	24.53	-0.15	-0.050			
0.5808	37172.43	3.6050	3.6050	-1.9854	24.53	-0.15	-0.050	0.393	0.536	
0.5827	37294.13	3.6040	3.6040	-1.9477	24.54	-0.14	-0.050			
0.5846	37413.24	3.6030	3.6030	-1.9159	24.54	-0.14	-0.050			
0.5864	37529.91	3.6020	3.6021	-1.8896	24.55	-0.13	-0.050			
0.5882	37645.25	3.6010	3.6011	-1.8675	24.54	-0.14	-0.050			
0.5900	37759.69	3.6000	3.6000	-1.8505	24.55	-0.13	-0.050			
0.5918	37874.04	3.5990	3.5989	-1.8393	24.55	-0.13	-0.050			
0.5936	37988.59	3.5980	3.5980	-1.8333	24.55	-0.13	-0.050			
0.5954	38102.68	3.5970	3.5969	-1.8287	24.55	-0.13	-0.050			
0.5972	38218.24	3.5960	3.5960	-1.8295	24.55	-0.13	-0.050			
0.5990	38334.54	3.5950	3.5949	-1.8323	24.56	-0.12	-0.050			
0.6008	38452.19	3.5940	3.5940	-1.8330	24.58	-0.10	-0.050	0.437	0.633	
0.6027	38570.21	3.5930	3.5929	-1.8363	24.59	-0.09	-0.050			
0.6045	38688.71	3.5920	3.5920	-1.8388	24.59	-0.09	-0.050			
0.6064	38807.78	3.5910	3.5910	-1.8408	24.59	-0.09	-0.050			
0.6082	38927.62	3.5900	3.5900	-1.8419	24.59	-0.09	-0.050			
0.6101	39046.83	3.5890	3.5891	-1.8402	24.59	-0.09	-0.050			
0.6120	39165.65	3.5880	3.5880	-1.8364	24.60	-0.08	-0.050			
0.6138	39284.64	3.5870	3.5870	-1.8334	24.61	-0.07	-0.050			
0.6157	39402.62	3.5860	3.5862	-1.8272	24.61	-0.07	-0.050			
0.6175	39520.66	3.5850	3.5850	-1.8186	24.61	-0.07	-0.050			
0.6193	39637.45	3.5840	3.5841	-1.8092	24.61	-0.07	-0.050			
0.6211	39753.15	3.5830	3.5831	-1.7973	24.61	-0.07	-0.050	0.514	0.664	
0.6229	39868.52	3.5820	3.5820	-1.7859	24.61	-0.07	-0.050			
0.6247	39982.86	3.5810	3.5809	-1.7732	24.61	-0.07	-0.050			
0.6265	40096.23	3.5800	3.5800	-1.7603	24.61	-0.07	-0.050			
0.6282	40207.84	3.5790	3.5790	-1.7465	24.61	-0.07	-0.050			
0.6300	40319.34	3.5780	3.5779	-1.7335	24.62	-0.06	-0.050			
0.6317	40429.80	3.5770	3.5770	-1.7201	24.61	-0.07	-0.050			
0.6334	40539.30	3.5760	3.5760	-1.7074	24.61	-0.07	-0.050			
0.6351	40648.46	3.5750	3.5750	-1.6964	24.61	-0.07	-0.050			
0.6368	40756.31	3.5740	3.5740	-1.6849	24.63	-0.05	-0.050			
0.6385	40863.14	3.5730	3.5731	-1.6734	24.63	-0.05	-0.050			
0.6401	40969.57	3.5720	3.5720	-1.6628	24.63	-0.05	-0.050	0.403	0.618	
0.6418	41074.76	3.5710	3.5710	-1.6514	24.65	-0.03	-0.050			
0.6434	41179.28	3.5700	3.5700	-1.6439	24.65	-0.03	-0.050			
0.6450	41283.20	3.5690	3.5690	-1.6357	24.67	-0.01	-0.050			
0.6467	41386.74	3.5680	3.5680	-1.6300	24.67	-0.01	-0.050			
0.6483	41489.61	3.5670	3.5670	-1.6253	24.68	-0.00	-0.050			
0.6499	41592.93	3.5660	3.5660	-1.6222	24.69	0.01	-0.050			
0.6515	41695.87	3.5650	3.5650	-1.6188	24.69	0.01	-0.050			
0.6531	41798.64	3.5640	3.5640	-1.6163	24.70	0.02	-0.050			
0.6547	41902.08	3.5630	3.5631	-1.6151	24.71	0.03	-0.050			
0.6563	42004.58	3.5620	3.5620	-1.6149	24.71	0.03	-0.050			
0.6579	42107.63	3.5610	3.5610	-1.6156	24.71	0.03	-0.050			
0.6595	42211.15	3.5600	3.5600	-1.6149	24.73	0.05	-0.050			
0.6612	42314.75	3.5590	3.5590	-1.6131	24.74	0.06	-0.050	0.424	0.621	
0.6628	42419.15	3.5580	3.5579	-1.6109	24.75	0.07	-0.050			
0.6644	42523.04	3.5570	3.5570	-1.6080	24.75	0.07	-0.050			
0.6660	42627.08	3.5560	3.5561	-1.6029	24.77	0.09	-0.050			
0.6677	42731.21	3.5550	3.5550	-1.5945	24.77	0.09	-0.050			
0.6693	42834.72	3.5540	3.5540	-1.5871	24.77	0.09	-0.050			
0.6709	42937.16	3.5530	3.5529	-1.5765	24.77	0.09	-0.050			
0.6725	43039.49	3.5520	3.5521	-1.5655	24.77	0.09	-0.050			
0.6741	43140.50	3.5510	3.5511	-1.5495	24.77	0.09	-0.050			
0.6756	43240.65	3.5500	3.5501	-1.5321	24.77	0.09	-0.050			
0.6772	43339.67	3.5490	3.5490	-1.5118	24.77	0.09	-0.050			
0.6787	43437.41	3.5480	3.5480	-1.4912	24.75	0.07	-0.050			
0.6802	43533.41	3.5470	3.5469	-1.4685	24.75	0.07	-0.050	0.357	0.606	
0.6817	43627.47	3.5460	3.5459	-1.4437	24.75	0.07	-0.050			
0.6831	43719.39	3.5450	3.5450	-1.4181	24.73	0.05	-0.050			
0.6845	43809.82	3.5440	3.5441	-1.3923	24.73	0.05	-0.050			
0.6859	43897.92	3.5430	3.5431	-1.3670	24.72	0.04	-0.050			
0.6872	43983.76	3.5420	3.5420	-1.3394	24.73	0.05	-0.050			
0.6886	44069.04	3.5410	3.5410	-1.3136	24.72	0.04	-0.050			
0.6899	44152.20	3.5400	3.5399	-1.2896	24.73	0.05	-0.050			
0.6911	44233.43	3.5390	3.5390	-1.2651	24.72	0.04	-0.050			
0.6924	44313.04	3.5380	3.5380	-1.2397	24.71	0.03	-0.050			
0.6936	44391.00	3.5370	3.5370	-1.2157	24.71	0.03	-0.050			
0.6948	44467.44	3.5360	3.5360	-1.1933	24.71	0.03	-0.050			
0.6960	44542.16	3.5350	3.5349	-1.1704	24.71	0.03	-0.050			
0.6971	44615.66	3.5340	3.5340	-1.1479	24.71	0.03	-0.050			
0.6982	44687.83	3.5330	3.5330	-1.1273	24.70	0.02	-0.050			
0.6994	44758.69	3.5320	3.5319	-1.1093	24.71	0.03	-0.050			
0.7004	44828.49	3.5310	3.5310	-1.0929	24.70	0.02	-0.050	0.421	0.646	
0.7015	44897.39	3.5300	3.5299	-1.0758	24.71	0.03	-0.050			
0.7026	44964.76	3.5290	3.5290	-1.0614	24.70	0.02	-0.050			
0.7036	45031.14	3.5280	3.5280	-1.0468	24.70	0.02	-0.050			
0.7046	45096.36	3.5270	3.5269	-1.0353	24.70	0.02	-0.050			
0.7056	45161.02	3.5260	3.5261	-1.0240	24.70	0.02	-0.050			
0.7066	45224.83	3.5250	3.5250	-1.0142	24.69	0.01	-0.050			
0.7076	45288.05	3.5240	3.5240	-1.0067	24.69	0.01	-0.050			
0.7086	45350.90	3.5230	3.5229	-0.9993	24.69	0.01	-0.050			
0.7096	45413.72	3.5220	3.5220	-0.9950	24.69	0.01	-0.050			
0.7106	45476.52	3.5210	3.5210	-0.9915	24.69	0.01	-0.050			
0.7115	45538.69	3.5200	3.5199	-0.9885	24.69	0.01	-0.050			
0.7125	45601.46	3.5190	3.5190	-0.9864	24.69	0.01	-0.050			
0.7135	45664.51	3.5180	3.5180	-0.9849	24.68	-0.00	-0.050			
0.7145	45727.45	3.5170	3.5170	-0.9837	24.67	-0.01	-0.050			
0.7155	45790.14	3.5160	3.5160	-0.9834	24.67	-0.01	-0.050			
0.7165	45853.55	3.5150	3.5149	-0.9825	24.67	-0.01	-0.050			
0.7175	45916.92	3.5140	3.5140	-0.9820	24.67	-0.01	-0.050			
0.7184	45980.06	3.5130	3.5130	-0.9810	24.67	-0.01	-0.050			
0.7194	46042.72	3.5120	3.5120	-0.9792	24.67	-0.01	-0.050			
0.7204	46106.30	3.5110	3.5110	-0.9765	24.67	-0.01	-0.050	0.444	0.712	
0.7214	46168.80	3.5100	3.5101	-0.9747	24.67	-0.01	-0.050			
0.7224	46231.47	3.5090	3.5091	-0.9715	24.67	-0.01	-0.050			
0.7233	46293.52	3.5080	3.5079	-0.9680	24.67	-0.01	-0.050			
0.7243	46355.61	3.5070	3.5070	-0.9657	24.65	-0.03	-0.050			
0.7253	46417.22	3.5060	3.5061	-0.9625	24.65	-0.03	-0.050			
0.7262	46478.69	3.5050	3.5051	-0.9610	24.65	-0.03	-0.050			
0.7272	46539.50	3.5040	3.5039	-0.9576	24.65	-0.03	-0.050			
0.7281	46600.00	3.5030	3.5030	-0.9568	24.64	-0.04	-0.050			
0.7291	46660.12	3.5020	3.5020	-0.9569	24.64	-0.04	-0.050			
0.7300	46720.56	3.5010	3.5010	-0.9580	24.65	-0.03	-0.050			
0.7309	46780.77	3.5000	3.5001	-0.9600	24.64	-0.04	-0.050			
0.7319	46841.03	3.4990	3.4991	-0.9659	24.65	-0.03	-0.050			
0.7328	46901.03	3.4980	3.4980	-0.9725	24.65	-0.03	-0.050			
0.7338	46961.61	3.4970	3.4971	-0.9828	24.65	-0.03	-0.050			
0.7347	47021.87	3.4960	3.4961	-0.9944	24.65	-0.03	-0.050			
0.7357	47083.06	3.4950	3.4951	-1.0102	24.65	-0.03	-0.050			
0.7367	47145.79	3.4940	3.4940	-1.0316	24.64	-0.04	-0.050			
0.7376	47207.84	3.4930	3.4930	-1.0561	24.64	-0.04	-0.050			
0.7386	47273.31	3.4920	3.4921	-1.0872	24.63	-0.05	-0.050			
0.7397	47338.48	3.4910	3.4911	-1.1237	24.63	-0.05	-0.050			
0.7407	47406.99	3.4900	3.4901	-1.1692	24.63	-0.05	-0.050	0.458	0.647	
0.7418	47477.26	3.4890	3.4892	-1.2163	24.63	-0.05	-0.050			
0.7430	47551.36	3.4880	3.4880	-1.2774	24.63	-0.05	-0.050			
0.7442	47629.59	3.4870	3.4870	-1.3353	24.63	-0.05	-0.050			
0.7455	47715.11	3.4860	3.4860	-1.4017	24.63	-0.05	-0.050			
0.7469	47803.60	3.4850	3.4850	-1.4686	24.63	-0.05	-0.050			
0.7484	47898.77	3.4840	3.4838	-1.5434	24.63	-0.05	-0.050			
0.7500	47998.89	3.4830	3.4829	-1.6162	24.63	-0.05	-0.050			
0.7516	48105.46	3.4820	3.4818	-1.6908	24.63	-0.05	-0.050			
0.7534	48218.02	3.4810	3.4810	-1.7652	24.62	-0.06	-0.050			
0.7553	48336.73	3.4800	3.4799	-1.8360	24.61	-0.07	-0.050			
0.7572	48461.04	3.4790	3.4790	-1.9005	24.62	-0.06	-0.050			
0.7592	48589.71	3.4780	3.4780	-1.9629	24.62	-0.06	-0.050			
0.7613	48722.55	3.4770	3.4770	-2.0178	24.63	-0.05	-0.050	0.396	0.624	
0.7634	48860.15	3.4760	3.4758	-2.0605	24.63	-0.05	-0.050			
0.7656	48999.20	3.4750	3.4750	-2.0970	24.63	-0.05	-0.050			
0.7678	49140.86	3.4740	3.4739	-2.1214	24.63	-0.05	-0.050			
0.7701	49283.87	3.4730	3.4730	-2.1419	24.65	-0.03	-0.050			
0.7723	49426.27	3.4720	3.4719	-2.1479	24.65	-0.03	-0.050			
0.7745	49569.45	3.4710	3.4710	-2.1476	24.66	-0.02	-0.050			
0.7767	49711.84	3.4700	3.4700	-2.1401	24.67	-0.01	-0.050			
0.7789	49852.49	3.4690	3.4690	-2.1249	24.66	-0.02	-0.050			
0.7811	49992.27	3.4680	3.4680	-2.1059	24.65	-0.03	-0.050	0.404	0.598	
0.7833	50129.55	3.4670	3.4669	-2.0812	24.65	-0.03	-0.050			
0.7854	50264.63	3.4660	3.4660	-2.0485	24.65	-0.03	-0.050			
0.7874	50396.63	3.4650	3.4650	-2.0125	24.65	-0.03	-0.050			
0.7895	50526.05	3.4640	3.4640	-1.9726	24.65	-0.03	-0.050			
0.7914	50652.15	3.4630	3.4630	-1.9304	24.65	-0.03	-0.050			
0.7934	50776.13	3.4620	3.4619	-1.8883	24.65	-0.03	-0.050			
0.7953	50896.22	3.4610	3.4610	-1.8428	24.65	-0.03	-0.050			
0.7971	51013.50	3.4600	3.4601	-1.7950	24.65	-0.03	-0.050			
0.7989	51127.62	3.4590	3.4589	-1.7475	24.65	-0.03	-0.050			
0.8006	51238.68	3.4580	3.4581	-1.6982	24.65	-0.03	-0.050	0.411	0.598	
0.8023	51346.28	3.4570	3.4570	-1.6493	24.64	-0.04	-0.050			
0.8039	51450.30	3.4560	3.4560	-1.5991	24.63	-0.05	-0.050			
0.8055	51551.28	3.4550	3.4550	-1.5472	24.63	-0.05	-0.050			
0.8070	51648.66	3.4540	3.4540	-1.4965	24.63	-0.05	-0.050			
0.8085	51743.31	3.4530	3.4530	-1.4445	24.63	-0.05	-0.050			
0.8099	51834.47	3.4520	3.4521	-1.3935	24.63	-0.05	-0.050			
0.8113	51922.10	3.4510	3.4510	-1.3408	24.61	-0.07	-0.050			
0.8126	52005.85	3.4500	3.4499	-1.2882	24.62	-0.06	-0.050			
0.8138	52086.26	3.4490	3.4490	-1.2358	24.62	-0.06	-0.050			
0.8151	52163.57	3.4480	3.4480	-1.1852	24.61	-0.07	-0.050			
0.8162	52237.53	3.4470	3.4471	-1.1370	24.61	-0.07	-0.050			
0.8173	52308.00	3.4460	3.4461	-1.0876	24.61	-0.07	-0.050			
0.8184	52375.42	3.4450	3.4450	-1.0406	24.61	-0.07	-0.050			
0.8194	52439.23	3.4440	3.4441	-0.9938	24.61	-0.07	-0.050			
0.8203	52500.01	3.4430	3.4430	-0.9491	24.61	-0.07	-0.050	0.365	0.624	
0.8212	52557.80	3.4420	3.4420	-0.9058	24.61	-0.07	-0.050			
0.8221	52613.48	3.4410	3.4409	-0.8616	24.61	-0.07	-0.050			
0.8229	52665.98	3.4400	3.4400	-0.8228	24.61	-0.07	-0.050			
0.8237	52715.30	3.4390	3.4390	-0.7851	24.61	-0.07	-0.050			
0.8244	52762.55	3.4380	3.4380	-0.7504	24.61	-0.07	-0.050			
0.8251	52807.08	3.4370	3.4370	-0.7168	24.61	-0.07	-0.050			
0.8258	52850.72	3.4360	3.4360	-0.6832	24.61	-0.07	-0.050			
0.8264	52892.02	3.4350	3.4350	-0.6546	24.61	-0.07	-0.050			
0.8271	52931.50	3.4340	3.4340	-0.6281	24.61	-0.07	-0.050			
0.8277	52969.97	3.4330	3.4330	-0.6003	24.61	-0.07	-0.050			
0.8282	53006.42	3.4320	3.4320	-0.5770	24.61	-0.07	-0.050			
0.8288	53040.69	3.4310	3.4310	-0.5544	24.61	-0.07	-0.050			
0.8293	53074.77	3.4300	3.4301	-0.5314	24.61	-0.07	-0.050			
0.8298	53106.79	3.4290	3.4289	-0.5127	24.61	-0.07	-0.050			
0.8303	53138.48	3.4280	3.4279	-0.4929	24.61	-0.07	-0.050			
0.8307	53167.58	3.4270	3.4270	-0.4756	24.61	-0.07	-0.050			
0.8312	53196.93	3.4260	3.4260	-0.4583	24.62	-0.06	-0.050			
0.8316	53224.59	3.4250	3.4250	-0.4440	24.63	-0.05	-0.050			
0.8320	53251.17	3.4240	3.4240	-0.4307	24.62	-0.06	-0.050			
0.8325	53277.85	3.4230	3.4230	-0.4172	24.61	-0.07	-0.050			
0.8329	53303.08	3.4220	3.4220	-0.4059	24.61	-0.07	-0.050			
0.8333	53328.72	3.4210	3.4209	-0.3954	24.61	-0.07	-0.050			
0.8336	53352.90	3.4200	3.4200	-0.3856	24.61	-0.07	-0.050			
0.8340	53376.70	3.4190	3.4190	-0.3749	24.61	-0.07	-0.050			
0.8344	53399.44	3.4180	3.4180	-0.3661	24.61	-0.07	-0.050			
0.8347	53422.18	3.4170	3.4169	-0.3571	24.61	-0.07	-0.050			
0.8351	53444.49	3.4160	3.4161	-0.3506	24.61	-0.07	-0.050			
0.8354	53466.38	3.4150	3.4150	-0.3428	24.61	-0.07	-0.050			
0.8357	53487.95	3.4140	3.4140	-0.3358	24.61	-0.07	-0.050			
0.8361	53508.84	3.4130	3.4130	-0.3308	24.61	-0.07	-0.050			
0.8364	53529.43	3.4120	3.4120	-0.3240	24.61	-0.07	-0.050			
0.8367	53549.61	3.4110	3.4110	-0.3188	24.61	-0.07	-0.050			
0.8370	53569.85	3.4100	3.4101	-0.3136	24.61	-0.07	-0.050			
0.8373	53589.13	3.4090	3.4090	-0.3083	24.61	-0.07	-0.050			
0.8376	53608.72	3.4080	3.4079	-0.3037	24.61	-0.07	-0.050			
0.8379	53627.46	3.4070	3.4070	-0.2998	24.61	-0.07	-0.050			
0.8382	53646.52	3.4060	3.4060	-0.2958	24.61	-0.07	-0.050			
0.8385	53665.00	3.4050	3.4050	-0.2914	24.61	-0.07	-0.050			
0.8388	53683.14	3.4040	3.4040	-0.2881	24.62	-0.06	-0.050			
0.8391	53701.47	3.4030	3.4029	-0.2849	24.63	-0.05	-0.050			
0.8394	53719.04	3.4020	3.4021	-0.2814	24.63	-0.05	-0.050			
0.8396	53736.97	3.4010	3.4010	-0.2788	24.63	-0.05	-0.050			
0.8399	53754.62	3.4000	3.4000	-0.2760	24.62	-0.06	-0.050			
0.8402	53772.17	3.3990	3.3990	-0.2737	24.62	-0.06	-0.050			
0.8405	53789.60	3.3980	3.3980	-0.2712	24.62	-0.06	-0.050			
0.8407	53806.79	3.3970	3.3970	-0.2691	24.63	-0.05	-0.050	0.426	0.680	
0.8410	53823.70	3.3960	3.3960	-0.2662	24.63	-0.05	-0.050			
0.8413	53840.67	3.3950	3.3950	-0.2641	24.63	-0.05	-0.050			
0.8415	53857.47	3.3940	3.3940	-0.2622	24.63	-0.05	-0.050			
0.8418	53874.15	3.3930	3.3930	-0.2601	24.63	-0.05	-0.050			
0.8420	53890.73	3.3920	3.3920	-0.2581	24.63	-0.05	-0.050			
0.8423	53907.06	3.3910	3.3910	-0.2559	24.63	-0.05	-0.050			
0.8426	53923.38	3.3900	3.3900	-0.2540	24.63	-0.05	-0.050			
0.8428	53939.66	3.3890	3.3890	-0.2526	24.63	-0.05	-0.050			
0.8431	53955.77	3.3880	3.3880	-0.2506	24.63	-0.05	-0.050			
0.8433	53971.74	3.3870	3.3870	-0.2487	24.63	-0.05	-0.050			
0.8436	53987.40	3.3860	3.3860	-0.2475	24.63	-0.05	-0.050			
0.8438	54003.18	3.3850	3.3850	-0.2458	24.63	-0.05	-0.050			
0.8440	54018.71	3.3840	3.3840	-0.2438	24.63	-0.05	-0.050			
0.8443	54034.27	3.3830	3.3831	-0.2422	24.63	-0.05	-0.050			
0.8445	54049.64	3.3820	3.3820	-0.2405	24.63	-0.05	-0.050			
0.8448	54064.89	3.3810	3.3810	-0.2393	24.63	-0.05	-0.050			
0.8450	54080.16	3.3800	3.3800	-0.2380	24.63	-0.05	-0.050			
0.8452	54095.22	3.3790	3.3789	-0.2364	24.63	-0.05	-0.050			
0.8455	54110.24	3.3780	3.3780	-0.2354	24.63	-0.05	-0.050			
0.8457	54125.25	3.3770	3.3769	-0.2342	24.63	-0.05	-0.050			
0.8459	54140.20	3.3760	3.3760	-0.2330	24.63	-0.05	-0.050			
0.8462	54154.97	3.3750	3.3750	-0.2323	24.63	-0.05	-0.050			
0.8464	54169.68	3.3740	3.3741	-0.2310	24.64	-0.04	-0.050			
0.8466	54184.43	3.3730	3.3731	-0.2301	24.64	-0.04	-0.050			
0.8469	54199.07	3.3720	3.3720	-0.2291	24.64	-0.04	-0.050			
0.8471	54213.70	3.3710	3.3709	-0.2282	24.64	-0.04	-0.050			
0.8473	54228.35	3.3700	3.3700	-0.2271	24.65	-0.03	-0.050			
0.8475	54242.89	3.3690	3.3690	-0.2262	24.65	-0.03	-0.050			
0.8478	54257.34	3.3680	3.3680	-0.2252	24.65	-0.03	-0.050			
0.8480	54271.75	3.3670	3.3670	-0.2242	24.65	-0.03	-0.050			
0.8482	54286.05	3.3660	3.3660	-0.2231	24.65	-0.03	-0.050			
0.8484	54300.30	3.3650	3.3649	-0.2221	24.65	-0.03	-0.050			
0.8487	54314.45	3.3640	3.3640	-0.2211	24.65	-0.03	-0.050			
0.8489	54328.57	3.3630	3.3631	-0.2201	24.65	-0.03	-0.050			
0.8491	54342.62	3.3620	3.3620	-0.2191	24.65	-0.03	-0.050			
0.8493	54356.71	3.3610	3.3610	-0.2188	24.65	-0.03	-0.050			
0.8495	54370.68	3.3600	3.3600	-0.2178	24.66	-0.02	-0.050			
0.8498	54384.58	3.3590	3.3590	-0.2167	24.66	-0.02	-0.050			
0.8500	54398.25	3.3580	3.3581	-0.2158	24.67	-0.01	-0.050			
0.8502	54412.03	3.3570	3.3569	-0.2150	24.67	-0.01	-0.050			
0.8504	54425.77	3.3560	3.3559	-0.2141	24.67	-0.01	-0.050			
0.8506	54439.48	3.3550	3.3550	-0.2128	24.67	-0.01	-0.050			
0.8508	54453.07	3.3540	3.3540	-0.2119	24.67	-0.01	-0.050			
0.8510	54466.52	3.3530	3.3530	-0.2108	24.67	-0.01	-0.050			
0.8513	54480.02	3.3520	3.3520	-0.2099	24.67	-0.01	-0.050			
0.8515	54493.43	3.3510	3.3509	-0.2090	24.67	-0.01	-0.050			
0.8517	54506.83	3.3500	3.3500	-0.2082	24.67	-0.01	-0.050			
0.8519	54520.09	3.3490	3.3491	-0.2074	24.67	-0.01	-0.050			
0.8521	54533.34	3.3480	3.3480	-0.2065	24.67	-0.01	-0.050			
0.8523	54546.62	3.3470	3.3470	-0.2058	24.67	-0.01	-0.050			
0.8525	54559.56	3.3460	3.3461	-0.2053	24.67	-0.01	-0.050			
0.8527	54572.67	3.3450	3.3450	-0.2045	24.67	-0.01	-0.050			
0.8529	54585.69	3.3440	3.3440	-0.2036	24.68	-0.00	-0.050			
0.8531	54598.71	3.3430	3.3430	-0.2028	24.68	0.00	-0.050			
0.8533	54611.67	3.3420	3.3419	-0.2021	24.69	0.01	-0.050			
0.8535	54624.49	3.3410	3.3410	-0.2012	24.69	0.01	-0.050			
0.8537	54637.34	3.3400	3.3400	-0.2005	24.69	0.01	-0.050			
0.8539	54650.19	3.3390	3.3389	-0.1996	24.69	0.01	-0.050			
0.8541	54662.83	3.3380	3.3379	-0.1987	24.69	0.01	-0.050			
0.8543	54675.53	3.3370	3.3370	-0.1981	24.69	0.01	-0.050			
0.8545	54688.29	3.3360	3.3360	-0.1970	24.69	0.01	-0.050			
0.8547	54700.90	3.3350	3.3349	-0.1964	24.69	0.01	-0.050			
0.8549	54713.44	3.3340	3.3341	-0.1956	24.69	0.01	-0.050			
0.8551	54725.85	3.3330	3.3331	-0.1951	24.69	0.01	-0.050			
0.8553	54738.48	3.3320	3.3320	-0.1948	24.69	0.01	-0.050			
0.8555	54750.92	3.3310	3.3310	-0.1940	24.70	0.02	-0.050			
0.8557	54763.31	3.3300	3.3301	-0.1932	24.70	0.02	-0.050			
0.8559	54775.60	3.3290	3.3290	-0.1925	24.71	0.03	-0.050			
0.8561	54787.89	3.3280	3.3280	-0.1917	24.71	0.03	-0.050			
0.8563	54800.14	3.3270	3.3271	-0.1910	24.71	0.03	-0.050			
0.8564	54812.21	3.3260	3.3260	-0.1902	24.70	0.02	-0.050			
0.8566	54824.36	3.3250	3.3249	-0.1896	24.70	0.02	-0.050			
0.8568	54836.48	3.3240	3.3240	-0.1890	24.70	0.02	-0.050			
0.8570	54848.38	3.3230	3.3229	-0.1879	24.70	0.02	-0.050			
0.8572	54860.39	3.3220	3.3219	-0.1875	24.70	0.02	-0.050			
0.8574	54872.37	3.3210	3.3212	-0.1870	24.70	0.02	-0.050			
0.8576	54884.32	3.3200	3.3200	-0.1865	24.70	0.02	-0.050			
0.8578	54896.47	3.3190	3.3190	-0.1857	24.70	0.02	-0.050			
0.8579	54908.33	3.3180	3.3180	-0.1850	24.70	0.02	-0.050			
0.8581	54920.14	3.3170	3.3170	-0.1843	24.71	0.03	-0.050			
0.8583	54931.75	3.3160	3.3160	-0.1843	24.71	0.03	-0.050			
0.8585	54943.53	3.3150	3.3150	-0.1838	24.71	0.03	-0.050			
0.8587	54955.27	3.3140	3.3140	-0.1832	24.71	0.03	-0.050			
0.8589	54967.01	3.3130	3.3130	-0.1827	24.71	0.03	-0.050			
0.8590	54978.80	3.3120	3.3120	-0.1819	24.71	0.03	-0.050			
0.8592	54990.42	3.3110	3.3110	-0.1812	24.71	0.03	-0.050			
0.8594	55002.00	3.3100	3.3100	-0.1806	24.71	0.03	-0.050			
0.8596	55013.54	3.3090	3.3090	-0.1795	24.71	0.03	-0.050			
0.8598	55025.01	3.3080	3.3079	-0.1788	24.71	0.03	-0.050			
0.8599	55036.44	3.3070	3.3069	-0.1782	24.71	0.03	-0.050			
0.8601	55047.93	3.3060	3.3059	-0.1777	24.71	0.03	-0.050			
0.8603	55059.18	3.3050	3.3049	-0.1772	24.71	0.03	-0.050			
0.8605	55070.49	3.3040	3.3040	-0.1765	24.71	0.03	-0.050			
0.8607	55081.76	3.3030	3.3030	-0.1758	24.71	0.03	-0.050	0.348	0.625	
0.8608	55092.99	3.3020	3.3020	-0.1751	24.71	0.03	-0.050			
0.8610	55104.21	3.3010	3.3010	-0.1744	24.71	0.03	-0.050			
0.8612	55115.35	3.3000	3.3000	-0.1737	24.72	0.04	-0.050			
0.8614	55126.48	3.2990	3.2990	-0.1730	24.72	0.04	-0.050			
0.8615	55137.53	3.2980	3.2979	-0.1723	24.72	0.04	-0.050			
0.8617	55148.44	3.2970	3.2970	-0.1719	24.73	0.05	-0.050			
0.8619	55159.47	3.2960	3.2960	-0.1714	24.73	0.05	-0.050			
0.8620	55170.42	3.2950	3.2949	-0.1707	24.73	0.05	-0.050			
0.8622	55181.26	3.2940	3.2939	-0.1702	24.73	0.05	-0.050			
0.8624	55192.14	3.2930	3.2931	-0.1696	24.73	0.05	-0.050			
0.8625	55202.66	3.2920	3.2920	-0.1684	24.73	0.05	-0.050			
0.8627	55213.42	3.2910	3.2910	-0.1680	24.73	0.05	-0.050			
0.8629	55224.25	3.2900	3.2900	-0.1673	24.73	0.05	-0.050			
0.8630	55235.10	3.2890	3.2890	-0.1672	24.73	0.05	-0.050			
0.8632	55245.79	3.2880	3.2880	-0.1666	24.73	0.05	-0.050			
0.8634	55256.43	3.2870	3.2869	-0.1661	24.73	0.05	-0.050			
0.8635	55267.00	3.2860	3.2860	-0.1656	24.73	0.05	-0.050			
0.8637	55277.62	3.2850	3.2851	-0.1651	24.73	0.05	-0.050			
0.8639	55288.17	3.2840	3.2840	-0.1645	24.73	0.05	-0.050			
0.8640	55298.68	3.2830	3.2829	-0.1640	24.73	0.05	-0.050			
0.8642	55309.11	3.2820	3.2820	-0.1635	24.73	0.05	-0.050			
0.8644	55319.46	3.2810	3.2810	-0.1628	24.73	0.05	-0.050			
0.8645	55329.86	3.2800	3.2800	-0.1623	24.74	0.06	-0.050			
0.8647	55340.23	3.2790	3.2790	-0.1618	24.74	0.06	-0.050			
0.8649	55350.67	3.2780	3.2780	-0.1610	24.74	0.06	-0.050			
0.8650	55361.07	3.2770	3.2770	-0.1607	24.75	0.07	-0.050			
0.8652	55371.33	3.2760	3.2760	-0.1600	24.75	0.07	-0.050			
0.8653	55381.55	3.2750	3.2749	-0.1594	24.75	0.07	-0.050			
0.8655	55391.63	3.2740	3.2740	-0.1588	24.75	0.07	-0.050			
0.8657	55401.77	3.2730	3.2730	-0.1582	24.74	0.06	-0.050			
0.8658	55411.88	3.2720	3.2720	-0.1577	24.74	0.06	-0.050			
0.8660	55421.96	3.2710	3.2710	-0.1571	24.74	0.06	-0.050			
0.8661	55431.98	3.2700	3.2701	-0.1567	24.74	0.06	-0.050			
0.8663	55441.99	3.2690	3.2691	-0.1562	24.74	0.06	-0.050			
0.8664	55451.97	3.2680	3.2680	-0.1556	24.75	0.07	-0.050			
0.8666	55461.91	3.2670	3.2670	-0.1551	24.75	0.07	-0.050			
0.8667	55471.89	3.2660	3.2660	-0.1545	24.75	0.07	-0.050			
0.8669	55481.76	3.2650	3.2650	-0.1539	24.75	0.07	-0.050			
0.8671	55491.59	3.2640	3.2639	-0.1533	24.75	0.07	-0.050			
0.8672	55501.38	3.2630	3.2629	-0.1528	24.75	0.07	-0.050			
0.8674	55510.95	3.2620	3.2620	-0.1523	24.75	0.07	-0.050			
0.8675	55520.68	3.2610	3.2610	-0.1519	24.75	0.07	-0.050			
0.8677	55530.39	3.2600	3.2600	-0.1514	24.75	0.07	-0.050			
0.8678	55540.07	3.2590	3.2590	-0.1510	24.75	0.07	-0.050			
0.8680	55549.64	3.2580	3.2580	-0.1505	24.75	0.07	-0.050			
0.8681	55559.33	3.2570	3.2570	-0.1499	24.75	0.07	-0.050			
0.8683	55568.91	3.2560	3.2560	-0.1495	24.75	0.07	-0.050			
0.8684	55578.46	3.2550	3.2550	-0.1490	24.75	0.07	-0.050			
0.8686	55588.09	3.2540	3.2540	-0.1487	24.75	0.07	-0.050			
0.8687	55597.68	3.2530	3.2529	-0.1480	24.75	0.07	-0.050			
0.8689	55607.13	3.2520	3.2519	-0.1474	24.75	0.07	-0.050			
0.8690	55616.54	3.2510	3.2510	-0.1468	24.75	0.07	-0.050			
0.8692	55625.91	3.2500	3.2500	-0.1462	24.75	0.07	-0.050			
0.8693	55635.14	3.2490	3.2490	-0.1458	24.75	0.07	-0.050			
0.8694	55644.46	3.2480	3.2480	-0.1454	24.75	0.07	-0.050			
0.8696	55653.75	3.2470	3.2471	-0.1449	24.75	0.07	-0.050			
0.8697	55663.01	3.2460	3.2461	-0.1444	24.76	0.08	-0.050			
0.8699	55672.23	3.2450	3.2450	-0.1439	24.76	0.08	-0.050			
0.8700	55681.33	3.2440	3.2441	-0.1436	24.76	0.08	-0.050			
0.8702	55690.51	3.2430	3.2430	-0.1432	24.76	0.08	-0.050			
0.8703	55699.66	3.2420	3.2420	-0.1428	24.76	0.08	-0.050			
0.8704	55708.78	3.2410	3.2410	-0.1424	24.76	0.08	-0.050			
0.8706	55717.97	3.2400	3.2400	-0.1417	24.76	0.08	-0.050			
0.8707	55727.03	3.2390	3.2389	-0.1412	24.76	0.08	-0.050			
0.8709	55736.05	3.2380	3.2379	-0.1407	24.76	0.08	-0.050			
0.8710	55744.90	3.2370	3.2370	-0.1400	24.76	0.08	-0.050			
0.8712	55753.85	3.2360	3.2361	-0.1396	24.76	0.08	-0.050			
0.8713	55762.80	3.2350	3.2350	-0.1392	24.76	0.08	-0.050			
0.8714	55771.69	3.2340	3.2340	-0.1388	24.76	0.08	-0.050			
0.8716	55780.64	3.2330	3.2330	-0.1385	24.76	0.08	-0.050			
0.8717	55789.49	3.2320	3.2321	-0.1381	24.76	0.08	-0.050			
0.8718	55798.31	3.2310	3.2310	-0.1376	24.76	0.08	-0.050			
0.8720	55807.03	3.2300	3.2299	-0.1374	24.76	0.08	-0.050			
0.8721	55815.88	3.2290	3.2291	-0.1372	24.76	0.08	-0.050			
0.8723	55824.65	3.2280	3.2281	-0.1367	24.75	0.07	-0.050			
0.8724	55833.39	3.2270	3.2271	-0.1363	24.75	0.07	-0.050			
0.8725	55842.08	3.2260	3.2260	-0.1358	24.75	0.07	-0.050			
0.8727	55850.76	3.2250	3.2249	-0.1354	24.75	0.07	-0.050			
0.8728	55859.30	3.2240	3.2238	-0.1347	24.75	0.07	-0.050			
0.8729	55867.91	3.2230	3.2230	-0.1344	24.75	0.07	-0.050			
0.8731	55876.49	3.2220	3.2220	-0.1340	24.76	0.08	-0.050			
0.8732	55885.06	3.2210	3.2209	-0.1336	24.76	0.08	-0.050			
0.8733	55893.54	3.2200	3.2200	-0.1331	24.76	0.08	-0.050			
0.8735	55902.05	3.2190	3.2190	-0.1328	24.76	0.08	-0.050			
0.8736	55910.54	3.2180	3.2180	-0.1325	24.76	0.08	-0.050			
0.8737	55919.00	3.2170	3.2170	-0.1321	24.76	0.08	-0.050			
0.8739	55927.54	3.2160	3.2161	-0.1315	24.75	0.07	-0.050			
0.8740	55936.09	3.2150	3.2150	-0.1315	24.75	0.07	-0.050			
0.8741	55944.49	3.2140	3.2140	-0.1310	24.75	0.07	-0.050			
0.8743	55952.85	3.2130	3.2130	-0.1304	24.75	0.07	-0.050			
0.8744	55961.18	3.2120	3.2120	-0.1299	24.75	0.07	-0.050			
0.8745	55969.39	3.2110	3.2110	-0.1298	24.75	0.07	-0.050			
0.8747	55977.64	3.2100	3.2099	-0.1293	24.75	0.07	-0.050			
0.8748	55985.90	3.2090	3.2090	-0.1289	24.75	0.07	-0.050			
0.8749	55994.14	3.2080	3.2080	-0.1286	24.75	0.07	-0.050			
0.8750	56002.36	3.2070	3.2070	-0.1282	24.75	0.07	-0.050			
0.8752	56010.60	3.2060	3.2060	-0.1274	24.75	0.07	-0.050			
0.8753	56018.74	3.2050	3.2051	-0.1269	24.75	0.07	-0.050			
0.8754	56026.85	3.2040	3.2040	-0.1265	24.75	0.07	-0.050			
0.8755	56034.93	3.2030	3.2030	-0.1261	24.75	0.07	-0.050			
0.8757	56042.98	3.2020	3.2020	-0.1256	24.75	0.07	-0.050			
0.8758	56051.09	3.2010	3.2009	-0.1253	24.75	0.07	-0.050			
0.8759	56059.10	3.2000	3.1999	-0.1248	24.75	0.07	-0.050			
0.8760	56067.07	3.1990	3.1990	-0.1243	24.75	0.07	-0.050			
0.8762	56075.00	3.1980	3.1980	-0.1238	24.76	0.08	-0.050			
0.8763	56082.91	3.1970	3.1971	-0.1233	24.76	0.08	-0.050			
0.8764	56090.67	3.1960	3.1961	-0.1230	24.76	0.08	-0.050			
0.8765	56098.53	3.1950	3.1951	-0.1226	24.76	0.08	-0.050			
0.8767	56106.36	3.1940	3.1941	-0.1222	24.77	0.09	-0.050			
0.8768	56114.17	3.1930	3.1931	-0.1218	24.77	0.09	-0.050			
0.8769	56121.95	3.1920	3.1919	-0.1214	24.77	0.09	-0.050			
0.8770	56129.71	3.1910	3.1909	-0.1210	24.76	0.08	-0.050			
0.8771	56137.42	3.1900	3.1900	-0.1206	24.76	0.08	-0.050			
0.8773	56145.13	3.1890	3.1890	-0.1202	24.76	0.08	-0.050			
0.8774	56152.80	3.1880	3.1881	-0.1198	24.75	0.07	-0.050			
0.8775	56160.46	3.1870	3.1870	-0.1194	24.75	0.07	-0.050			
0.8776	56167.86	3.1860	3.1861	-0.1188	24.75	0.07	-0.050			
0.8777	56175.52	3.1850	3.1849	-0.1184	24.75	0.07	-0.050			
0.8779	56183.09	3.1840	3.1839	-0.1181	24.75	0.07	-0.050			
0.8780	56190.64	3.1830	3.1831	-0.1178	24.75	0.07	-0.050			
0.8781	56198.16	3.1820	3.1821	-0.1175	24.75	0.07	-0.050			
0.8782	56205.80	3.1810	3.1810	-0.1173	24.75	0.07	-0.050			
0.8783	56213.32	3.1800	3.1800	-0.1169	24.75	0.07	-0.050			
0.8784	56220.79	3.1790	3.1790	-0.1164	24.75	0.07	-0.050			
0.8786	56228.23	3.1780	3.1780	-0.1160	24.75	0.07	-0.050			
0.8787	56235.64	3.1770	3.1770	-0.1156	24.75	0.07	-0.050			
0.8788	56243.08	3.1760	3.1760	-0.1153	24.75	0.07	-0.050			
0.8789	56250.44	3.1750	3.1750	-0.1148	24.75	0.07	-0.050			
0.8790	56257.60	3.1740	3.1740	-0.1148	24.75	0.07	-0.050			
0.8791	56264.94	3.1730	3.1730	-0.1145	24.75	0.07	-0.050			
0.8793	56272.26	3.1720	3.1720	-0.1142	24.75	0.07	-0.050			
0.8794	56279.56	3.1710	3.1711	-0.1139	24.75	0.07	-0.050			
0.8795	56286.67	3.1700	3.1702	-0.1134	24.75	0.07	-0.050			
0.8796	56294.16	3.1690	3.1690	-0.1128	24.75	0.07	-0.050			
0.8797	56301.37	3.1680	3.1679	-0.1125	24.75	0.07	-0.050			
0.8798	56308.56	3.1670	3.1670	-0.1121	24.75	0.07	-0.050			
0.8799	56315.72	3.1660	3.1660	-0.1117	24.75	0.07	-0.050			
0.8800	56322.94	3.1650	3.1648	-0.1115	24.75	0.07	-0.050			
0.8802	56330.06	3.1640	3.1640	-0.1111	24.75	0.07	-0.050			
0.8803	56337.08	3.1630	3.1629	-0.1109	24.75	0.07	-0.050			
0.8804	56344.16	3.1620	3.1619	-0.1105	24.75	0.07	-0.050			
0.8805	56351.22	3.1610	3.1610	-0.1102	24.75	0.07	-0.050			
0.8806	56358.29	3.1600	3.1600	-0.1098	24.75	0.07	-0.050			
0.8807	56365.30	3.1590	3.1592	-0.1095	24.75	0.07	-0.050	0.365	0.672	
0.8808	56372.30	3.1580	3.1581	-0.1091	24.75	0.07	-0.050			
0.8809	56379.28	3.1570	3.1570	-0.1087	24.75	0.07	-0.050			
0.8810	56386.23	3.1560	3.1559	-0.1083	24.75	0.07	-0.050			
0.8811	56393.15	3.1550	3.1549	-0.1079	24.75	0.07	-0.050			
0.8813	56400.11	3.1540	3.1540	-0.1077	24.75	0.07	-0.050			
0.8814	56406.99	3.1530	3.1530	-0.1073	24.75	0.07	-0.050			
0.8815	56413.84	3.1520	3.1519	-0.1068	24.75	0.07	-0.050			
0.8816	56420.59	3.1510	3.1509	-0.1066	24.75	0.07	-0.050			
0.8817	56427.40	3.1500	3.1499	-0.1062	24.75	0.07	-0.050			
0.8818	56434.02	3.1490	3.1491	-0.1054	24.75	0.07	-0.050			
0.8819	56440.76	3.1480	3.1480	-0.1052	24.75	0.07	-0.050			
0.8820	56447.49	3.1470	3.1470	-0.1049	24.75	0.07	-0.050			
0.8821	56454.19	3.1460	3.1461	-0.1047	24.75	0.07	-0.050			
0.8822	56460.88	3.1450	3.1451	-0.1044	24.75	0.07	-0.050			
0.8823	56467.61	3.1440	3.1440	-0.1039	24.75	0.07	-0.050			
0.8824	56474.43	3.1430	3.1429	-0.1040	24.75	0.07	-0.050			
0.8825	56481.07	3.1420	3.1419	-0.1036	24.75	0.07	-0.050			
0.8826	56487.69	3.1410	3.1411	-0.1031	24.75	0.07	-0.050			
0.8827	56494.27	3.1400	3.1400	-0.1027	24.75	0.07	-0.050			
0.8828	56500.73	3.1390	3.1390	-0.1026	24.75	0.07	-0.050			
0.8829	56507.28	3.1380	3.1380	-0.1023	24.75	0.07	-0.050			
0.8830	56513.69	3.1370	3.1370	-0.1017	24.75	0.07	-0.050			
0.8831	56520.19	3.1360	3.1360	-0.1014	24.75	0.07	-0.050			
0.8832	56526.68	3.1350	3.1350	-0.1012	24.75	0.07	-0.050			
0.8833	56533.14	3.1340	3.1340	-0.1009	24.75	0.07	-0.050			
0.8834	56539.62	3.1330	3.1331	-0.1005	24.75	0.07	-0.050			
0.8835	56546.05	3.1320	3.1320	-0.1002	24.75	0.07	-0.050			
0.8836	56552.48	3.1310	3.1310	-0.1000	24.75	0.07	-0.050			
0.8837	56558.87	3.1300	3.1300	-0.0997	24.75	0.07	-0.050			
0.8838	56565.24	3.1290	3.1290	-0.0994	24.75	0.07	-0.050			
0.8839	56571.60	3.1280	3.1280	-0.0991	24.75	0.07	-0.050			
0.8840	56577.93	3.1270	3.1270	-0.0988	24.75	0.07	-0.050			
0.8841	56584.22	3.1260	3.1260	-0.0986	24.75	0.07	-0.050			
0.8842	56590.53	3.1250	3.1250	-0.0983	24.75	0.07	-0.050			
0.8843	56596.77	3.1240	3.1241	-0.0980	24.75	0.07	-0.050			
0.8844	56603.03	3.1230	3.1230	-0.0977	24.75	0.07	-0.050			
0.8845	56609.28	3.1220	3.1220	-0.0975	24.75	0.07	-0.050			
0.8846	56615.51	3.1210	3.1210	-0.0972	24.75	0.07	-0.050			
0.8847	56621.72	3.1200	3.1200	-0.0969	24.75	0.07	-0.050			
0.8848	56628.00	3.1190	3.1190	-0.0967	24.75	0.07	-0.050			
0.8849	56634.18	3.1180	3.1180	-0.0964	24.75	0.07	-0.050			
0.8850	56640.33	3.1170	3.1169	-0.0961	24.75	0.07	-0.050			
0.8851	56646.47	3.1160	3.1160	-0.0957	24.75	0.07	-0.050			
0.8852	56652.59	3.1150	3.1150	-0.0954	24.75	0.07	-0.050			
0.8853	56658.69	3.1140	3.1140	-0.0951	24.75	0.07	-0.050			
0.8854	56664.69	3.1130	3.1130	-0.0948	24.75	0.07	-0.050			
0.8855	56670.75	3.1120	3.1120	-0.0945	24.75	0.07	-0.050			
0.8856	56676.79	3.1110	3.1110	-0.0943	24.76	0.08	-0.050			
0.8857	56682.81	3.1100	3.1100	-0.0940	24.76	0.08	-0.050			
0.8858	56688.82	3.1090	3.1090	-0.0937	24.76	0.08	-0.050			
0.8859	56694.81	3.1080	3.1080	-0.0935	24.76	0.08	-0.050			
0.8859	56700.75	3.1070	3.1071	-0.0933	24.76	0.08	-0.050			
0.8860	56706.71	3.1060	3.1060	-0.0930	24.76	0.08	-0.050			
0.8861	56712.66	3.1050	3.1050	-0.0928	24.76	0.08	-0.050			
0.8862	56718.59	3.1040	3.1040	-0.0926	24.76	0.08	-0.050			
0.8863	56724.51	3.1030	3.1030	-0.0923	24.76	0.08	-0.050			
0.8864	56730.41	3.1020	3.1020	-0.0921	24.75	0.07	-0.050			
0.8865	56736.29	3.1010	3.1010	-0.0918	24.75	0.07	-0.050			
0.8866	56742.16	3.1000	3.1000	-0.0916	24.75	0.07	-0.050			
0.8867	56748.06	3.0990	3.0990	-0.0911	24.75	0.07	-0.050			
0.8868	56753.88	3.0980	3.0981	-0.0908	24.75	0.07	-0.050			
0.8869	56759.68	3.0970	3.0970	-0.0905	24.75	0.07	-0.050			
0.8870	56765.46	3.0960	3.0959	-0.0902	24.75	0.07	-0.050			
0.8871	56771.22	3.0950	3.0949	-0.0899	24.75	0.07	-0.050			
0.8871	56776.97	3.0940	3.0939	-0.0896	24.75	0.07	-0.050			
0.8872	56782.74	3.0930	3.0930	-0.0896	24.75	0.07	-0.050			
0.8873	56788.46	3.0920	3.0920	-0.0892	24.75	0.07	-0.050			
0.8874	56794.16	3.0910	3.0909	-0.0889	24.75	0.07	-0.050			
0.8875	56799.85	3.0900	3.0900	-0.0886	24.75	0.07	-0.050			
0.8876	56805.51	3.0890	3.0893	-0.0883	24.75	0.07	-0.050			
0.8877	56811.15	3.0880	3.0881	-0.0880	24.75	0.07	-0.050			
0.8878	56816.69	3.0870	3.0870	-0.0878	24.75	0.07	-0.050			
0.8878	56822.30	3.0860	3.0860	-0.0875	24.75	0.07	-0.050			
0.8879	56827.89	3.0850	3.0850	-0.0873	24.75	0.07	-0.050			
0.8880	56833.47	3.0840	3.0840	-0.0870	24.74	0.06	-0.050			
0.8881	56839.03	3.0830	3.0830	-0.0868	24.74	0.06	-0.050			
0.8882	56844.57	3.0820	3.0820	-0.0865	24.74	0.06	-0.050			
0.8883	56850.10	3.0810	3.0810	-0.0862	24.74	0.06	-0.050			
0.8884	56855.62	3.0800	3.0800	-0.0859	24.74	0.06	-0.050			
0.8885	56861.06	3.0790	3.0791	-0.0855	24.74	0.06	-0.050			
0.8885	56866.53	3.0780	3.0780	-0.0853	24.74	0.06	-0.050			
0.8886	56871.98	3.0770	3.0770	-0.0851	24.74	0.06	-0.050			
0.8887	56877.41	3.0760	3.0760	-0.0848	24.74	0.06	-0.050			
0.8888	56882.84	3.0750	3.0750	-0.0846	24.74	0.06	-0.050			
0.8889	56888.24	3.0740	3.0740	-0.0844	24.73	0.05	-0.050			
0.8890	56893.77	3.0730	3.0729	-0.0842	24.73	0.05	-0.050			
0.8890	56899.04	3.0720	3.0720	-0.0841	24.73	0.05	-0.050			
0.8891	56904.42	3.0710	3.0710	-0.0839	24.73	0.05	-0.050			
0.8892	56909.78	3.0700	3.0702	-0.0836	24.73	0.05	-0.050			
0.8893	56915.12	3.0690	3.0691	-0.0834	24.73	0.05	-0.050			
0.8894	56920.45	3.0680	3.0680	-0.0831	24.73	0.05	-0.050			
0.8895	56925.70	3.0670	3.0670	-0.0828	24.73	0.05	-0.050			
0.8895	56931.05	3.0660	3.0659	-0.0826	24.73	0.05	-0.050			
0.8896	56936.32	3.0650	3.0649	-0.0823	24.73	0.05	-0.050			
0.8897	56941.59	3.0640	3.0639	-0.0821	24.73	0.05	-0.050			
0.8898	56946.83	3.0630	3.0630	-0.0819	24.73	0.05	-0.050			
0.8899	56952.06	3.0620	3.0620	-0.0816	24.73	0.05	-0.050			
0.8900	56957.28	3.0610	3.0610	-0.0814	24.73	0.05	-0.050			
0.8900	56962.46	3.0600	3.0600	-0.0811	24.73	0.05	-0.050			
0.8901	56967.69	3.0590	3.0591	-0.0808	24.73	0.05	-0.050			
0.8902	56972.86	3.0580	3.0580	-0.0806	24.73	0.05	-0.050			
0.8903	56978.01	3.0570	3.0570	-0.0803	24.73	0.05	-0.050			
0.8904	56983.14	3.0560	3.0560	-0.0801	24.73	0.05	-0.050			
0.8904	56988.26	3.0550	3.0550	-0.0798	24.73	0.05	-0.050			
0.8905	56993.36	3.0540	3.0540	-0.0796	24.73	0.05	-0.050			
0.8906	56998.45	3.0530	3.0530	-0.0793	24.73	0.05	-0.050			
0.8907	57003.52	3.0520	3.0520	-0.0793	24.73	0.05	-0.050			
0.8908	57008.59	3.0510	3.0510	-0.0790	24.73	0.05	-0.050			
0.8908	57013.64	3.0500	3.0500	-0.0788	24.73	0.05	-0.050			
0.8909	57018.67	3.0490	3.0491	-0.0785	24.73	0.05	-0.050			
0.8910	57023.69	3.0480	3.0480	-0.0783	24.73	0.05	-0.050			
0.8911	57028.70	3.0470	3.0470	-0.0781	24.73	0.05	-0.050			
0.8911	57033.56	3.0460	3.0460	-0.0777	24.73	0.05	-0.050			
0.8912	57038.55	3.0450	3.0450	-0.0775	24.73	0.05	-0.050			
0.8913	57043.50	3.0440	3.0440	-0.0773	24.73	0.05	-0.050			
0.8914	57048.44	3.0430	3.0430	-0.0771	24.73	0.05	-0.050			
0.8915	57053.37	3.0420	3.0420	-0.0770	24.73	0.05	-0.050			
0.8915	57058.29	3.0410	3.0410	-0.0768	24.73	0.05	-0.050			
0.8916	57063.20	3.0400	3.0400	-0.0766	24.73	0.05	-0.050			
0.8917	57068.08	3.0390	3.0390	-0.0764	24.73	0.05	-0.050			
0.8918	57072.96	3.0380	3.0381	-0.0762	24.73	0.05	-0.050			
0.8918	57077.87	3.0370	3.0371	-0.0760	24.73	0.05	-0.050			
0.8919	57082.73	3.0360	3.0360	-0.0758	24.73	0.05	-0.050			
0.8920	57087.57	3.0350	3.0350	-0.0756	24.73	0.05	-0.050			
0.8921	57092.40	3.0340	3.0339	-0.0754	24.73	0.05	-0.050			
0.8921	57097.22	3.0330	3.0330	-0.0752	24.73	0.05	-0.050			
0.8922	57102.09	3.0320	3.0320	-0.0751	24.72	0.04	-0.050			
0.8923	57106.89	3.0310	3.0310	-0.0748	24.72	0.04	-0.050			
0.8924	57111.66	3.0300	3.0300	-0.0746	24.72	0.04	-0.050			
0.8924	57116.43	3.0290	3.0290	-0.0744	24.72	0.04	-0.050			
0.8925	57121.19	3.0280	3.0280	-0.0742	24.72	0.04	-0.050			
0.8926	57125.93	3.0270	3.0271	-0.0739	24.72	0.04	-0.050			
0.8927	57130.65	3.0260	3.0260	-0.0737	24.72	0.04	-0.050			
0.8927	57135.35	3.0250	3.0249	-0.0735	24.72	0.04	-0.050			
0.8928	57140.04	3.0240	3.0240	-0.0732	24.72	0.04	-0.050			
0.8929	57144.73	3.0230	3.0230	-0.0730	24.72	0.04	-0.050			
0.8930	57149.37	3.0220	3.0220	-0.0728	24.72	0.04	-0.050			
0.8930	57154.03	3.0210	3.0211	-0.0726	24.71	0.03	-0.050			
0.8931	57158.67	3.0200	3.0200	-0.0724	24.71	0.03	-0.050			
0.8932	57163.30	3.0190	3.0190	-0.0722	24.71	0.03	-0.050			
0.8932	57167.91	3.0180	3.0180	-0.0720	24.71	0.03	-0.050			
0.8933	57172.50	3.0170	3.0170	-0.0718	24.71	0.03	-0.050			
0.8934	57177.08	3.0160	3.0160	-0.0716	24.71	0.03	-0.050			
0.8935	57181.66	3.0150	3.0150	-0.0714	24.71	0.03	-0.050			
0.8935	57186.22	3.0140	3.0140	-0.0712	24.71	0.03	-0.050			
0.8936	57190.77	3.0130	3.0130	-0.0710	24.71	0.03	-0.050			
0.8937	57195.30	3.0120	3.0120	-0.0708	24.72	0.04	-0.050			
0.8937	57199.83	3.0110	3.0110	-0.0706	24.72	0.04	-0.050			
0.8938	57204.31	3.0100	3.0099	-0.0704	24.72	0.04	-0.050			
0.8939	57208.81	3.0090	3.0089	-0.0702	24.72	0.04	-0.050			
0.8940	57213.30	3.0080	3.0080	-0.0700	24.72	0.04	-0.050			
0.8940	57217.78	3.0070	3.0070	-0.0698	24.72	0.04	-0.050			
0.8941	57222.24	3.0060	3.0060	-0.0697	24.73	0.05	-0.050			
0.8942	57226.70	3.0050	3.0050	-0.0695	24.73	0.05	-0.050			
