Relative time (s)	Voltage (V)	Temperature (°C)	
3.771	3.2012	26.70	
34.771	3.2690	26.75	
94.771	3.2910	26.74	
154.771	3.2988	26.72	
214.771	3.3030	26.68	
274.771	3.3057	26.62	
334.771	3.3076	26.58	
394.771	3.3092	26.52	
454.771	3.3104	26.46	
514.771	3.3115	26.39	
574.771	3.3124	26.34	
634.771	3.3133	26.29	
694.771	3.3141	26.23	
754.771	3.3149	26.17	
814.771	3.3154	26.13	
874.771	3.3163	26.05	
934.771	3.3167	26.01	
943.771	3.3170	25.99	
