Relative time (s)	Voltage (V)	Temperature (°C)	
3.760	3.1988	26.72	
29.760	3.2627	26.76	
89.760	3.2881	26.76	
149.760	3.2962	26.74	
209.760	3.3006	26.69	
269.760	3.3034	26.63	
329.760	3.3053	26.58	
389.760	3.3070	26.52	
449.760	3.3081	26.48	
509.760	3.3093	26.42	
569.760	3.3104	26.35	
629.760	3.3112	26.29	
689.760	3.3120	26.23	
749.760	3.3129	26.19	
809.760	3.3136	26.13	
869.760	3.3141	26.07	
929.760	3.3149	26.01	
945.760	3.3150	25.99	
