Relative time (s)	Voltage (V)	Temperature (°C)	
10.558	3.2344	26.82	
70.558	3.2848	26.88	
130.558	3.2959	26.86	
190.558	3.3012	26.82	
250.558	3.3043	26.78	
310.558	3.3066	26.72	
370.558	3.3084	26.68	
430.558	3.3097	26.62	
490.558	3.3107	26.57	
550.558	3.3118	26.52	
610.558	3.3127	26.46	
670.558	3.3136	26.42	
730.558	3.3143	26.35	
790.558	3.3151	26.30	
850.558	3.3157	26.25	
910.558	3.3165	26.20	
970.558	3.3171	26.15	
1030.558	3.3176	26.09	
1090.558	3.3181	26.05	
1148.558	3.3187	25.99	
