Relative time (s)	Voltage (V)	Temperature (°C)	
22.403	3.2593	26.94	
82.403	3.2911	26.96	
142.403	3.3006	26.94	
202.403	3.3056	26.88	
262.403	3.3086	26.84	
322.403	3.3108	26.78	
382.403	3.3124	26.74	
442.403	3.3137	26.67	
502.403	3.3150	26.62	
562.403	3.3159	26.56	
622.403	3.3167	26.48	
682.403	3.3177	26.43	
742.403	3.3183	26.37	
802.403	3.3191	26.31	
862.403	3.3198	26.25	
922.403	3.3204	26.20	
982.403	3.3209	26.14	
1042.403	3.3215	26.09	
1102.403	3.3220	26.05	
1155.403	3.3225	25.99	
