Relative time (s)	Voltage (V)	Temperature (°C)	
10.132	3.2372	26.80	
70.132	3.2892	26.84	
130.132	3.3007	26.82	
190.132	3.3062	26.78	
250.132	3.3095	26.74	
310.132	3.3118	26.69	
370.132	3.3135	26.63	
430.132	3.3150	26.58	
490.132	3.3160	26.52	
550.132	3.3171	26.46	
610.132	3.3180	26.41	
670.132	3.3188	26.35	
730.132	3.3195	26.29	
790.132	3.3203	26.23	
850.132	3.3210	26.19	
910.132	3.3216	26.13	
970.132	3.3221	26.07	
1030.132	3.3226	26.02	
1050.132	3.3228	25.99	
