Relative time (s)	Voltage (V)	Temperature (°C)	
6.774	3.2210	26.69	
66.774	3.2840	26.74	
126.774	3.2955	26.72	
186.774	3.3009	26.68	
246.774	3.3041	26.64	
306.774	3.3063	26.58	
366.774	3.3081	26.54	
426.774	3.3093	26.48	
486.774	3.3105	26.43	
546.774	3.3115	26.36	
606.774	3.3124	26.31	
666.774	3.3132	26.26	
726.774	3.3141	26.21	
786.774	3.3147	26.15	
846.774	3.3154	26.09	
906.774	3.3161	26.05	
965.774	3.3168	25.99	
