Relative time (s)	Voltage (V)	Temperature (°C)	
7.503	3.2228	26.70	
35.503	3.2680	26.73	
95.503	3.2897	26.74	
155.503	3.2976	26.72	
215.503	3.3017	26.68	
275.503	3.3044	26.63	
335.503	3.3062	26.58	
395.503	3.3077	26.53	
455.503	3.3091	26.48	
515.503	3.3101	26.42	
575.503	3.3110	26.37	
635.503	3.3120	26.31	
695.503	3.3127	26.25	
755.503	3.3135	26.20	
815.503	3.3144	26.15	
875.503	3.3148	26.09	
935.503	3.3155	26.05	
985.503	3.3160	25.99	
