Ah_balance (normalized)	Ah_balance (mAh)	Voltage - fit (V)	Voltage -  interpolate (V)	dQ/dV (1/V)	Temperature (°C)	Temperature - diff (°C)	Current (C)	R_DC 0ms (mOhm)	R_DC 50ms (mOhm)	R_DC 50 ms PEC (mOhm)
0.0001	4.61	4.1880	4.1878	-0.3035	24.67	0.00	-0.050			
0.0004	25.17	4.1870	4.1868	-0.3514	24.67	-0.00	-0.050			
0.0008	49.17	4.1860	4.1858	-0.3990	24.66	-0.01	-0.050			
0.0012	77.10	4.1850	4.1850	-0.4467	24.66	-0.01	-0.050			
0.0017	107.90	4.1840	4.1839	-0.4824	24.66	-0.01	-0.050			
0.0022	140.94	4.1830	4.1829	-0.5119	24.65	-0.02	-0.050			
0.0027	174.99	4.1820	4.1818	-0.5359	24.64	-0.03	-0.050			
0.0033	210.64	4.1810	4.1808	-0.5583	24.64	-0.03	-0.050			
0.0039	248.17	4.1800	4.1801	-0.5785	24.64	-0.03	-0.050			
0.0045	286.30	4.1790	4.1789	-0.5974	24.64	-0.03	-0.050			
0.0051	326.27	4.1780	4.1780	-0.6138	24.63	-0.04	-0.050			
0.0057	367.00	4.1770	4.1772	-0.6288	24.63	-0.04	-0.050			
0.0064	408.41	4.1760	4.1761	-0.6427	24.63	-0.04	-0.050			
0.0071	453.17	4.1750	4.1751	-0.6593	24.62	-0.05	-0.050			
0.0078	497.10	4.1740	4.1740	-0.6723	24.62	-0.05	-0.050			
0.0085	542.93	4.1730	4.1730	-0.6845	24.63	-0.04	-0.050			
0.0092	587.32	4.1720	4.1720	-0.6897	24.65	-0.02	-0.050			
0.0099	632.57	4.1710	4.1710	-0.6962	24.66	-0.01	-0.050			
0.0106	677.79	4.1700	4.1699	-0.7016	24.67	0.00	-0.050			
0.0113	722.96	4.1690	4.1689	-0.7051	24.68	0.01	-0.050			
0.0120	768.50	4.1680	4.1682	-0.7078	24.67	0.00	-0.050			
0.0127	814.31	4.1670	4.1670	-0.7120	24.68	0.01	-0.050			
0.0134	860.56	4.1660	4.1661	-0.7155	24.69	0.02	-0.050			
0.0142	906.59	4.1650	4.1650	-0.7203	24.68	0.01	-0.050			
0.0149	953.19	4.1640	4.1639	-0.7242	24.69	0.02	-0.050			
0.0156	999.67	4.1630	4.1629	-0.7258	24.70	0.03	-0.050			
0.0163	1045.92	4.1620	4.1618	-0.7279	24.70	0.03	-0.050			
0.0171	1091.94	4.1610	4.1611	-0.7302	24.71	0.04	-0.050			
0.0178	1138.63	4.1600	4.1601	-0.7331	24.72	0.05	-0.050			
0.0185	1185.34	4.1590	4.1592	-0.7368	24.72	0.05	-0.050			
0.0193	1232.04	4.1580	4.1578	-0.7390	24.74	0.07	-0.050			
0.0200	1279.54	4.1570	4.1570	-0.7434	24.75	0.08	-0.050			
0.0207	1327.43	4.1560	4.1559	-0.7469	24.75	0.08	-0.050			
0.0215	1375.27	4.1550	4.1551	-0.7503	24.75	0.08	-0.050			
0.0222	1423.74	4.1540	4.1541	-0.7534	24.76	0.09	-0.050			
0.0230	1472.06	4.1530	4.1529	-0.7563	24.76	0.09	-0.050			
0.0238	1521.07	4.1520	4.1519	-0.7596	24.77	0.10	-0.050			
0.0245	1569.54	4.1510	4.1509	-0.7627	24.77	0.10	-0.050			
0.0253	1618.91	4.1500	4.1502	-0.7657	24.76	0.09	-0.050			
0.0261	1668.32	4.1490	4.1490	-0.7683	24.76	0.09	-0.050			
0.0268	1717.61	4.1480	4.1479	-0.7717	24.75	0.08	-0.050			
0.0276	1767.25	4.1470	4.1469	-0.7741	24.75	0.08	-0.050			
0.0284	1816.94	4.1460	4.1461	-0.7751	24.75	0.08	-0.050			
0.0292	1866.25	4.1450	4.1449	-0.7777	24.73	0.06	-0.050			
0.0299	1915.75	4.1440	4.1439	-0.7807	24.75	0.08	-0.050			
0.0307	1965.99	4.1430	4.1429	-0.7839	24.75	0.08	-0.050			
0.0315	2016.46	4.1420	4.1420	-0.7856	24.75	0.08	-0.050			
0.0323	2066.82	4.1410	4.1409	-0.7859	24.73	0.06	-0.050			
0.0331	2117.51	4.1400	4.1399	-0.7868	24.72	0.05	-0.050			
0.0339	2168.04	4.1390	4.1390	-0.7880	24.72	0.05	-0.050			
0.0347	2218.64	4.1380	4.1381	-0.7885	24.72	0.05	-0.050			
0.0355	2269.56	4.1370	4.1370	-0.7898	24.72	0.05	-0.050			
0.0363	2320.39	4.1360	4.1358	-0.7911	24.71	0.04	-0.050			
0.0371	2371.31	4.1350	4.1351	-0.7914	24.70	0.03	-0.050			
0.0378	2422.10	4.1340	4.1342	-0.7914	24.70	0.03	-0.050			
0.0386	2472.71	4.1330	4.1330	-0.7920	24.70	0.03	-0.050			
0.0394	2523.28	4.1320	4.1319	-0.7940	24.68	0.01	-0.050			
0.0402	2574.10	4.1310	4.1310	-0.7939	24.70	0.03	-0.050	0.521	0.665	
0.0410	2624.65	4.1300	4.1301	-0.7939	24.70	0.03	-0.050			
0.0418	2675.33	4.1290	4.1289	-0.7960	24.71	0.04	-0.050			
0.0426	2725.51	4.1280	4.1280	-0.7966	24.70	0.03	-0.050			
0.0434	2776.49	4.1270	4.1271	-0.7967	24.70	0.03	-0.050			
0.0442	2827.60	4.1260	4.1260	-0.7984	24.70	0.03	-0.050			
0.0450	2877.84	4.1250	4.1248	-0.7993	24.69	0.02	-0.050			
0.0458	2929.12	4.1240	4.1239	-0.8004	24.70	0.03	-0.050			
0.0466	2980.83	4.1230	4.1230	-0.8019	24.69	0.02	-0.050			
0.0474	3032.67	4.1220	4.1220	-0.8043	24.67	0.00	-0.050			
0.0482	3084.68	4.1210	4.1208	-0.8060	24.67	0.00	-0.050			
0.0490	3136.81	4.1200	4.1201	-0.8056	24.68	0.01	-0.050			
0.0498	3188.21	4.1190	4.1191	-0.8082	24.67	0.00	-0.050			
0.0506	3239.74	4.1180	4.1181	-0.8094	24.68	0.01	-0.050			
0.0514	3292.26	4.1170	4.1169	-0.8096	24.68	0.01	-0.050			
0.0522	3343.88	4.1160	4.1161	-0.8105	24.68	0.01	-0.050			
0.0531	3395.64	4.1150	4.1150	-0.8123	24.67	0.00	-0.050			
0.0539	3447.71	4.1140	4.1140	-0.8128	24.67	0.00	-0.050			
0.0547	3499.61	4.1130	4.1132	-0.8144	24.67	0.00	-0.050			
0.0555	3551.15	4.1120	4.1118	-0.8153	24.67	0.00	-0.050			
0.0563	3603.49	4.1110	4.1110	-0.8159	24.67	0.00	-0.050			
0.0571	3656.06	4.1100	4.1098	-0.8165	24.67	0.00	-0.050			
0.0579	3707.92	4.1090	4.1091	-0.8173	24.66	-0.01	-0.050			
0.0588	3760.26	4.1080	4.1080	-0.8180	24.66	-0.01	-0.050			
0.0596	3812.49	4.1070	4.1072	-0.8215	24.66	-0.01	-0.050			
0.0604	3865.07	4.1060	4.1059	-0.8232	24.65	-0.02	-0.050			
0.0612	3917.26	4.1050	4.1050	-0.8256	24.65	-0.02	-0.050			
0.0620	3970.43	4.1040	4.1040	-0.8293	24.64	-0.03	-0.050			
0.0629	4023.69	4.1030	4.1029	-0.8319	24.64	-0.03	-0.050			
0.0637	4077.21	4.1020	4.1022	-0.8338	24.64	-0.03	-0.050			
0.0645	4130.68	4.1010	4.1008	-0.8348	24.64	-0.03	-0.050			
0.0654	4184.24	4.1000	4.0998	-0.8366	24.63	-0.04	-0.050			
0.0662	4237.90	4.0990	4.0990	-0.8351	24.62	-0.05	-0.050			
0.0671	4291.48	4.0980	4.0979	-0.8363	24.62	-0.05	-0.050			
0.0679	4345.82	4.0970	4.0972	-0.8382	24.61	-0.06	-0.050			
0.0688	4400.46	4.0960	4.0958	-0.8396	24.60	-0.07	-0.050			
0.0696	4453.70	4.0950	4.0952	-0.8371	24.60	-0.07	-0.050			
0.0704	4507.80	4.0940	4.0941	-0.8386	24.61	-0.06	-0.050			
0.0713	4562.14	4.0930	4.0930	-0.8374	24.61	-0.06	-0.050			
0.0721	4615.29	4.0920	4.0920	-0.8367	24.63	-0.04	-0.050			
0.0730	4669.09	4.0910	4.0910	-0.8364	24.64	-0.03	-0.050			
0.0738	4722.32	4.0900	4.0899	-0.8385	24.64	-0.03	-0.050			
0.0746	4775.24	4.0890	4.0889	-0.8371	24.64	-0.03	-0.050			
0.0755	4828.87	4.0880	4.0880	-0.8368	24.65	-0.02	-0.050			
0.0763	4881.63	4.0870	4.0869	-0.8363	24.66	-0.01	-0.050			
0.0771	4934.86	4.0860	4.0861	-0.8381	24.67	0.00	-0.050			
0.0779	4987.31	4.0850	4.0849	-0.8407	24.67	0.00	-0.050			
0.0788	5041.08	4.0840	4.0840	-0.8430	24.67	0.00	-0.050			
0.0796	5095.24	4.0830	4.0831	-0.8455	24.68	0.01	-0.050			
0.0805	5149.68	4.0820	4.0820	-0.8472	24.68	0.01	-0.050	0.556	0.690	
0.0813	5203.83	4.0810	4.0809	-0.8501	24.69	0.02	-0.050			
0.0822	5258.89	4.0800	4.0802	-0.8517	24.70	0.03	-0.050			
0.0830	5313.80	4.0790	4.0789	-0.8544	24.71	0.04	-0.050			
0.0839	5368.37	4.0780	4.0779	-0.8570	24.74	0.07	-0.050			
0.0847	5423.49	4.0770	4.0770	-0.8586	24.75	0.08	-0.050			
0.0856	5478.77	4.0760	4.0759	-0.8616	24.75	0.08	-0.050			
0.0865	5534.05	4.0750	4.0752	-0.8644	24.75	0.08	-0.050			
0.0873	5589.36	4.0740	4.0738	-0.8665	24.75	0.08	-0.050			
0.0882	5644.91	4.0730	4.0730	-0.8696	24.76	0.09	-0.050			
0.0891	5700.85	4.0720	4.0721	-0.8710	24.78	0.11	-0.050			
0.0899	5756.26	4.0710	4.0709	-0.8710	24.78	0.11	-0.050			
0.0908	5812.20	4.0700	4.0700	-0.8720	24.79	0.12	-0.050			
0.0917	5867.83	4.0690	4.0689	-0.8754	24.80	0.13	-0.050			
0.0926	5924.04	4.0680	4.0680	-0.8781	24.80	0.13	-0.050			
0.0934	5980.33	4.0670	4.0672	-0.8782	24.80	0.13	-0.050			
0.0943	6036.28	4.0660	4.0659	-0.8791	24.79	0.12	-0.050			
0.0952	6093.03	4.0650	4.0650	-0.8786	24.80	0.13	-0.050			
0.0961	6149.98	4.0640	4.0640	-0.8800	24.81	0.14	-0.050			
0.0970	6207.04	4.0630	4.0631	-0.8812	24.81	0.14	-0.050			
0.0979	6264.52	4.0620	4.0620	-0.8799	24.80	0.13	-0.050			
0.0988	6320.89	4.0610	4.0609	-0.8785	24.79	0.12	-0.050			
0.0997	6377.75	4.0600	4.0600	-0.8764	24.78	0.11	-0.050			
0.1005	6433.90	4.0590	4.0590	-0.8745	24.78	0.11	-0.050			
0.1014	6489.52	4.0580	4.0581	-0.8716	24.77	0.10	-0.050			
0.1023	6545.15	4.0570	4.0571	-0.8705	24.77	0.10	-0.050			
0.1031	6600.85	4.0560	4.0560	-0.8679	24.76	0.09	-0.050			
0.1040	6655.89	4.0550	4.0550	-0.8652	24.74	0.07	-0.050			
0.1049	6710.76	4.0540	4.0540	-0.8646	24.73	0.06	-0.050			
0.1057	6765.37	4.0530	4.0530	-0.8638	24.72	0.05	-0.050			
0.1066	6820.83	4.0520	4.0519	-0.8634	24.72	0.05	-0.050			
0.1074	6875.70	4.0510	4.0510	-0.8626	24.70	0.03	-0.050			
0.1083	6929.78	4.0500	4.0499	-0.8618	24.69	0.02	-0.050			
0.1091	6984.73	4.0490	4.0490	-0.8616	24.68	0.01	-0.050			
0.1100	7039.49	4.0480	4.0480	-0.8624	24.68	0.01	-0.050			
0.1109	7094.95	4.0470	4.0470	-0.8636	24.67	0.00	-0.050			
0.1117	7150.40	4.0460	4.0459	-0.8652	24.67	0.00	-0.050			
0.1126	7205.83	4.0450	4.0449	-0.8666	24.66	-0.01	-0.050			
0.1135	7261.42	4.0440	4.0442	-0.8677	24.66	-0.01	-0.050			
0.1143	7317.11	4.0430	4.0430	-0.8690	24.64	-0.03	-0.050			
0.1152	7373.24	4.0420	4.0420	-0.8703	24.64	-0.03	-0.050			
0.1161	7428.84	4.0410	4.0410	-0.8712	24.64	-0.03	-0.050			
0.1170	7486.37	4.0400	4.0401	-0.8657	24.62	-0.05	-0.050			
0.1179	7543.29	4.0390	4.0389	-0.8609	24.60	-0.07	-0.050			
0.1187	7599.59	4.0380	4.0380	-0.8537	24.59	-0.08	-0.050			
0.1196	7655.89	4.0370	4.0370	-0.8465	24.58	-0.09	-0.050			
0.1205	7710.49	4.0360	4.0359	-0.8364	24.57	-0.10	-0.050			
0.1213	7764.07	4.0350	4.0349	-0.8316	24.56	-0.11	-0.050			
0.1221	7816.62	4.0340	4.0341	-0.8264	24.56	-0.11	-0.050			
0.1230	7870.59	4.0330	4.0330	-0.8127	24.55	-0.12	-0.050			
0.1238	7920.97	4.0320	4.0322	-0.8140	24.54	-0.13	-0.050			
0.1245	7970.08	4.0310	4.0312	-0.8140	24.54	-0.13	-0.050			
0.1253	8019.54	4.0300	4.0305	-0.8102	24.54	-0.13	-0.050			
0.1261	8068.93	4.0290	4.0290	-0.8143	24.53	-0.14	-0.050			
0.1269	8119.69	4.0280	4.0278	-0.8152	24.52	-0.15	-0.050			
0.1276	8169.29	4.0270	4.0266	-0.8154	24.52	-0.15	-0.050			
0.1284	8219.89	4.0260	4.0256	-0.8223	24.50	-0.17	-0.050			
0.1292	8271.38	4.0250	4.0250	-0.8295	24.47	-0.20	-0.050			
0.1301	8323.21	4.0240	4.0239	-0.8344	24.46	-0.21	-0.050			
0.1309	8377.29	4.0230	4.0230	-0.8425	24.46	-0.21	-0.050			
0.1318	8432.58	4.0220	4.0219	-0.8488	24.44	-0.23	-0.050			
0.1326	8488.43	4.0210	4.0211	-0.8593	24.44	-0.23	-0.050			
0.1335	8544.85	4.0200	4.0202	-0.8700	24.44	-0.23	-0.050			
0.1344	8603.79	4.0190	4.0194	-0.8801	24.42	-0.25	-0.050			
0.1353	8660.86	4.0180	4.0182	-0.8855	24.44	-0.23	-0.050			
0.1362	8718.92	4.0170	4.0169	-0.8897	24.45	-0.22	-0.050			
0.1371	8776.65	4.0160	4.0161	-0.8927	24.46	-0.21	-0.050			
0.1380	8833.93	4.0150	4.0151	-0.8953	24.46	-0.21	-0.050			
0.1389	8892.23	4.0140	4.0139	-0.8984	24.46	-0.21	-0.050			
0.1398	8949.64	4.0130	4.0128	-0.9012	24.46	-0.21	-0.050			
0.1407	9005.80	4.0120	4.0121	-0.8957	24.47	-0.20	-0.050			
0.1416	9063.33	4.0110	4.0110	-0.8971	24.48	-0.19	-0.050			
0.1425	9121.14	4.0100	4.0099	-0.8977	24.51	-0.16	-0.050			
0.1434	9178.25	4.0090	4.0089	-0.9003	24.52	-0.15	-0.050			
0.1443	9237.05	4.0080	4.0079	-0.9024	24.54	-0.13	-0.050			
0.1452	9294.80	4.0070	4.0071	-0.9021	24.54	-0.13	-0.050			
0.1461	9352.19	4.0060	4.0058	-0.9012	24.55	-0.12	-0.050			
0.1470	9410.24	4.0050	4.0051	-0.9015	24.57	-0.10	-0.050			
0.1479	9467.80	4.0040	4.0038	-0.9055	24.57	-0.10	-0.050			
0.1488	9526.16	4.0030	4.0031	-0.9057	24.56	-0.11	-0.050			
0.1498	9584.46	4.0020	4.0020	-0.9070	24.56	-0.11	-0.050			
0.1507	9642.83	4.0010	4.0009	-0.9088	24.55	-0.12	-0.050			
0.1516	9700.33	4.0000	4.0003	-0.9088	24.54	-0.13	-0.050			
0.1525	9758.20	3.9990	3.9995	-0.9098	24.55	-0.12	-0.050			
0.1534	9815.62	3.9980	3.9982	-0.9116	24.55	-0.12	-0.050			
0.1543	9873.73	3.9970	3.9969	-0.9138	24.56	-0.11	-0.050			
0.1552	9932.49	3.9960	3.9961	-0.9141	24.56	-0.11	-0.050			
0.1561	9990.35	3.9950	3.9948	-0.9157	24.56	-0.11	-0.050			
0.1570	10049.72	3.9940	3.9941	-0.9185	24.55	-0.12	-0.050			
0.1579	10108.37	3.9930	3.9930	-0.9193	24.55	-0.12	-0.050			
0.1589	10168.30	3.9920	3.9919	-0.9205	24.55	-0.12	-0.050			
0.1598	10227.44	3.9910	3.9910	-0.9224	24.55	-0.12	-0.050	0.354	0.678	
0.1607	10286.46	3.9900	3.9899	-0.9227	24.56	-0.11	-0.050			
0.1616	10345.54	3.9890	3.9887	-0.9240	24.56	-0.11	-0.050			
0.1626	10405.06	3.9880	3.9880	-0.9257	24.56	-0.11	-0.050			
0.1635	10464.99	3.9870	3.9871	-0.9272	24.56	-0.11	-0.050			
0.1644	10523.71	3.9860	3.9860	-0.9281	24.56	-0.11	-0.050			
0.1654	10583.76	3.9850	3.9852	-0.9284	24.57	-0.10	-0.050			
0.1663	10642.49	3.9840	3.9840	-0.9272	24.56	-0.11	-0.050			
0.1672	10702.48	3.9830	3.9830	-0.9273	24.55	-0.12	-0.050			
0.1682	10761.76	3.9820	3.9818	-0.9277	24.54	-0.13	-0.050			
0.1691	10821.58	3.9810	3.9809	-0.9264	24.54	-0.13	-0.050			
0.1700	10880.03	3.9800	3.9799	-0.9276	24.55	-0.12	-0.050			
0.1709	10938.87	3.9790	3.9792	-0.9293	24.54	-0.13	-0.050			
0.1719	10999.89	3.9780	3.9779	-0.9217	24.55	-0.12	-0.050			
0.1728	11057.91	3.9770	3.9771	-0.9253	24.56	-0.11	-0.050			
0.1737	11117.13	3.9760	3.9762	-0.9264	24.57	-0.10	-0.050			
0.1746	11175.93	3.9750	3.9751	-0.9271	24.58	-0.09	-0.050			
0.1756	11235.51	3.9740	3.9741	-0.9288	24.59	-0.08	-0.050			
0.1765	11294.76	3.9730	3.9730	-0.9326	24.59	-0.08	-0.050			
0.1774	11353.87	3.9720	3.9721	-0.9345	24.60	-0.07	-0.050			
0.1783	11413.04	3.9710	3.9708	-0.9347	24.60	-0.07	-0.050			
0.1793	11472.52	3.9700	3.9701	-0.9358	24.60	-0.07	-0.050			
0.1802	11532.85	3.9690	3.9692	-0.9370	24.61	-0.06	-0.050			
0.1811	11592.93	3.9680	3.9682	-0.9395	24.61	-0.06	-0.050			
0.1821	11653.50	3.9670	3.9672	-0.9407	24.61	-0.06	-0.050			
0.1830	11713.48	3.9660	3.9658	-0.9427	24.60	-0.07	-0.050			
0.1840	11774.17	3.9650	3.9650	-0.9485	24.61	-0.06	-0.050			
0.1849	11835.32	3.9640	3.9639	-0.9505	24.62	-0.05	-0.050			
0.1859	11896.68	3.9630	3.9632	-0.9524	24.62	-0.05	-0.050			
0.1868	11957.45	3.9620	3.9619	-0.9534	24.62	-0.05	-0.050			
0.1878	12018.89	3.9610	3.9609	-0.9550	24.62	-0.05	-0.050			
0.1888	12080.46	3.9600	3.9598	-0.9560	24.63	-0.04	-0.050			
0.1897	12141.99	3.9590	3.9591	-0.9571	24.62	-0.05	-0.050			
0.1907	12204.89	3.9580	3.9581	-0.9613	24.63	-0.04	-0.050			
0.1916	12263.69	3.9570	3.9569	-0.9563	24.65	-0.02	-0.050			
0.1926	12325.56	3.9560	3.9558	-0.9568	24.64	-0.03	-0.050			
0.1936	12387.64	3.9550	3.9551	-0.9571	24.62	-0.05	-0.050			
0.1945	12448.24	3.9540	3.9540	-0.9599	24.63	-0.04	-0.050			
0.1955	12509.49	3.9530	3.9529	-0.9597	24.63	-0.04	-0.050			
0.1964	12571.33	3.9520	3.9520	-0.9613	24.63	-0.04	-0.050			
0.1974	12632.99	3.9510	3.9509	-0.9634	24.62	-0.05	-0.050			
0.1984	12694.73	3.9500	3.9501	-0.9640	24.62	-0.05	-0.050			
0.1993	12757.10	3.9490	3.9489	-0.9626	24.64	-0.03	-0.050			
0.2003	12818.47	3.9480	3.9480	-0.9623	24.62	-0.05	-0.050	0.688	0.397	
0.2012	12879.94	3.9470	3.9470	-0.9647	24.61	-0.06	-0.050			
0.2021	12936.35	3.9460	3.9462	-0.9865	24.62	-0.05	-0.050			
0.2031	12997.13	3.9450	3.9450	-0.9947	24.62	-0.05	-0.050			
0.2041	13060.14	3.9440	3.9441	-1.0078	24.63	-0.04	-0.050			
0.2051	13123.98	3.9430	3.9431	-1.0179	24.64	-0.03	-0.050			
0.2061	13189.60	3.9420	3.9420	-1.0259	24.67	0.00	-0.050			
0.2071	13256.51	3.9410	3.9410	-1.0360	24.67	0.00	-0.050			
0.2082	13324.80	3.9400	3.9399	-1.0413	24.68	0.01	-0.050			
0.2093	13393.16	3.9390	3.9388	-1.0487	24.69	0.02	-0.050			
0.2104	13462.76	3.9380	3.9376	-1.0496	24.70	0.03	-0.050			
0.2114	13532.67	3.9370	3.9367	-1.0503	24.71	0.04	-0.050			
0.2125	13601.35	3.9360	3.9366	-1.0515	24.72	0.05	-0.050			
0.2136	13671.39	3.9350	3.9353	-1.0482	24.72	0.05	-0.050			
0.2147	13740.03	3.9340	3.9342	-1.0440	24.72	0.05	-0.050			
0.2158	13810.29	3.9330	3.9332	-1.0440	24.74	0.07	-0.050			
0.2168	13877.83	3.9320	3.9321	-1.0368	24.75	0.08	-0.050			
0.2179	13945.57	3.9310	3.9310	-1.0303	24.76	0.09	-0.050			
0.2189	14010.36	3.9300	3.9300	-1.0218	24.77	0.10	-0.050			
0.2199	14075.88	3.9290	3.9287	-1.0129	24.77	0.10	-0.050	0.111	0.548	
0.2209	14137.11	3.9280	3.9279	-0.9994	24.78	0.11	-0.050			
0.2218	14198.39	3.9270	3.9268	-0.9924	24.78	0.11	-0.050			
0.2228	14256.36	3.9260	3.9261	-0.9746	24.80	0.13	-0.050			
0.2237	14318.63	3.9250	3.9249	-0.9765	24.80	0.13	-0.050			
0.2247	14380.99	3.9240	3.9240	-0.9771	24.80	0.13	-0.050			
0.2257	14443.40	3.9230	3.9229	-0.9774	24.80	0.13	-0.050			
0.2267	14505.75	3.9220	3.9220	-0.9782	24.80	0.13	-0.050			
0.2277	14570.36	3.9210	3.9210	-0.9730	24.80	0.13	-0.050			
0.2287	14634.23	3.9200	3.9198	-0.9661	24.78	0.11	-0.050			
0.2297	14697.97	3.9190	3.9191	-0.9552	24.77	0.10	-0.050			
0.2306	14760.45	3.9180	3.9178	-0.9495	24.76	0.09	-0.050			
0.2316	14821.13	3.9170	3.9171	-0.9470	24.75	0.08	-0.050			
0.2325	14881.87	3.9160	3.9160	-0.9383	24.74	0.07	-0.050			
0.2335	14941.15	3.9150	3.9152	-0.9389	24.74	0.07	-0.050			
0.2344	14999.23	3.9140	3.9141	-0.9377	24.73	0.06	-0.050			
0.2353	15056.94	3.9130	3.9133	-0.9395	24.72	0.05	-0.050			
0.2362	15115.14	3.9120	3.9123	-0.9384	24.70	0.03	-0.050			
0.2371	15173.30	3.9110	3.9109	-0.9412	24.69	0.02	-0.050			
0.2380	15231.00	3.9100	3.9098	-0.9437	24.68	0.01	-0.050			
0.2389	15290.18	3.9090	3.9087	-0.9491	24.68	0.01	-0.050			
0.2398	15349.81	3.9080	3.9077	-0.9533	24.68	0.01	-0.050			
0.2408	15409.49	3.9070	3.9069	-0.9569	24.67	0.00	-0.050			
0.2417	15471.87	3.9060	3.9058	-0.9619	24.64	-0.03	-0.050			
0.2427	15533.39	3.9050	3.9052	-0.9687	24.64	-0.03	-0.050			
0.2437	15596.55	3.9040	3.9040	-0.9764	24.64	-0.03	-0.050			
0.2447	15660.60	3.9030	3.9033	-0.9861	24.63	-0.04	-0.050			
0.2457	15725.06	3.9020	3.9021	-0.9949	24.61	-0.06	-0.050			
0.2467	15791.54	3.9010	3.9011	-1.0013	24.62	-0.05	-0.050			
0.2478	15858.99	3.9000	3.9001	-1.0069	24.60	-0.07	-0.050			
0.2488	15924.47	3.8990	3.8990	-1.0075	24.59	-0.08	-0.050			
0.2498	15989.31	3.8980	3.8981	-1.0043	24.57	-0.10	-0.050			
0.2508	16052.52	3.8970	3.8970	-1.0032	24.55	-0.12	-0.050			
0.2518	16117.40	3.8960	3.8956	-1.0024	24.54	-0.13	-0.050			
0.2528	16181.09	3.8950	3.8949	-0.9977	24.53	-0.14	-0.050			
0.2538	16244.48	3.8940	3.8941	-0.9984	24.54	-0.13	-0.050			
0.2548	16307.63	3.8930	3.8931	-0.9972	24.53	-0.14	-0.050			
0.2558	16371.59	3.8920	3.8923	-0.9969	24.52	-0.15	-0.050			
0.2568	16435.46	3.8910	3.8908	-0.9965	24.52	-0.15	-0.050			
0.2578	16498.80	3.8900	3.8899	-0.9956	24.51	-0.16	-0.050			
0.2588	16561.75	3.8890	3.8889	-0.9985	24.51	-0.16	-0.050			
0.2598	16625.63	3.8880	3.8878	-1.0010	24.51	-0.16	-0.050	0.448	0.652	
0.2608	16689.73	3.8870	3.8870	-1.0037	24.50	-0.17	-0.050			
0.2618	16753.73	3.8860	3.8856	-1.0049	24.48	-0.19	-0.050			
0.2628	16817.25	3.8850	3.8849	-1.0068	24.50	-0.17	-0.050			
0.2638	16881.39	3.8840	3.8840	-1.0080	24.49	-0.18	-0.050			
0.2648	16946.16	3.8830	3.8830	-1.0090	24.48	-0.19	-0.050			
0.2658	17011.14	3.8820	3.8819	-1.0106	24.48	-0.19	-0.050			
0.2668	17077.54	3.8810	3.8808	-1.0112	24.50	-0.17	-0.050			
0.2679	17142.68	3.8800	3.8801	-1.0118	24.51	-0.16	-0.050			
0.2689	17207.62	3.8790	3.8790	-1.0121	24.52	-0.15	-0.050			
0.2699	17272.14	3.8780	3.8776	-1.0134	24.53	-0.14	-0.050			
0.2709	17336.98	3.8770	3.8770	-1.0129	24.53	-0.14	-0.050			
0.2719	17402.81	3.8760	3.8759	-1.0154	24.54	-0.13	-0.050			
0.2729	17466.86	3.8750	3.8751	-1.0161	24.56	-0.11	-0.050			
0.2739	17531.62	3.8740	3.8741	-1.0164	24.57	-0.10	-0.050			
0.2750	17597.20	3.8730	3.8731	-1.0171	24.60	-0.07	-0.050			
0.2760	17662.00	3.8720	3.8721	-1.0183	24.62	-0.05	-0.050			
0.2770	17726.74	3.8710	3.8709	-1.0191	24.62	-0.05	-0.050			
0.2780	17791.84	3.8700	3.8700	-1.0191	24.63	-0.04	-0.050			
0.2790	17856.63	3.8690	3.8691	-1.0176	24.64	-0.03	-0.050			
0.2800	17922.24	3.8680	3.8680	-1.0184	24.65	-0.02	-0.050			
0.2811	17987.34	3.8670	3.8669	-1.0192	24.67	0.00	-0.050			
0.2821	18053.23	3.8660	3.8660	-1.0188	24.70	0.03	-0.050			
0.2831	18118.48	3.8650	3.8650	-1.0197	24.70	0.03	-0.050			
0.2841	18183.83	3.8640	3.8640	-1.0225	24.72	0.05	-0.050			
0.2852	18249.92	3.8630	3.8628	-1.0247	24.72	0.05	-0.050			
0.2862	18315.48	3.8620	3.8620	-1.0244	24.75	0.08	-0.050			
0.2872	18381.42	3.8610	3.8611	-1.0259	24.75	0.08	-0.050			
0.2882	18446.54	3.8600	3.8600	-1.0243	24.75	0.08	-0.050			
0.2893	18512.08	3.8590	3.8590	-1.0250	24.75	0.08	-0.050			
0.2903	18576.94	3.8580	3.8579	-1.0259	24.75	0.08	-0.050			
0.2913	18643.01	3.8570	3.8570	-1.0257	24.75	0.08	-0.050			
0.2923	18708.74	3.8560	3.8559	-1.0246	24.73	0.06	-0.050			
0.2934	18774.41	3.8550	3.8551	-1.0232	24.72	0.05	-0.050			
0.2944	18840.30	3.8540	3.8540	-1.0243	24.72	0.05	-0.050			
0.2954	18906.00	3.8530	3.8531	-1.0239	24.72	0.05	-0.050			
0.2964	18971.16	3.8520	3.8520	-1.0240	24.72	0.05	-0.050			
0.2975	19037.02	3.8510	3.8509	-1.0245	24.72	0.05	-0.050			
0.2985	19102.58	3.8500	3.8499	-1.0253	24.73	0.06	-0.050			
0.2995	19168.20	3.8490	3.8490	-1.0273	24.72	0.05	-0.050			
0.3005	19234.27	3.8480	3.8479	-1.0277	24.72	0.05	-0.050			
0.3015	19299.19	3.8470	3.8471	-1.0279	24.71	0.04	-0.050			
0.3026	19364.73	3.8460	3.8460	-1.0292	24.71	0.04	-0.050			
0.3036	19430.38	3.8450	3.8450	-1.0295	24.71	0.04	-0.050			
0.3046	19495.95	3.8440	3.8441	-1.0280	24.72	0.05	-0.050			
0.3057	19562.08	3.8430	3.8430	-1.0287	24.70	0.03	-0.050			
0.3067	19628.08	3.8420	3.8420	-1.0310	24.70	0.03	-0.050			
0.3077	19694.22	3.8410	3.8410	-1.0294	24.70	0.03	-0.050			
0.3088	19760.28	3.8400	3.8399	-1.0299	24.70	0.03	-0.050			
0.3098	19825.92	3.8390	3.8391	-1.0307	24.69	0.02	-0.050			
0.3108	19892.13	3.8380	3.8380	-1.0315	24.68	0.01	-0.050			
0.3118	19958.35	3.8370	3.8369	-1.0361	24.68	0.01	-0.050			
0.3129	20023.85	3.8360	3.8360	-1.0399	24.67	0.00	-0.050			
0.3139	20090.43	3.8350	3.8351	-1.0418	24.68	0.01	-0.050			
0.3150	20157.04	3.8340	3.8338	-1.0437	24.68	0.01	-0.050			
0.3160	20223.51	3.8330	3.8329	-1.0452	24.68	0.01	-0.050			
0.3170	20290.00	3.8320	3.8322	-1.0467	24.68	0.01	-0.050			
0.3181	20357.02	3.8310	3.8308	-1.0489	24.67	0.00	-0.050			
0.3191	20423.53	3.8300	3.8299	-1.0532	24.67	0.00	-0.050			
0.3202	20490.43	3.8290	3.8289	-1.0575	24.67	0.00	-0.050	0.751	0.920	
0.3212	20558.24	3.8280	3.8280	-1.0631	24.66	-0.01	-0.050			
0.3223	20626.00	3.8270	3.8270	-1.0678	24.64	-0.03	-0.050			
0.3234	20695.16	3.8260	3.8262	-1.0718	24.64	-0.03	-0.050			
0.3244	20764.07	3.8250	3.8250	-1.0762	24.64	-0.03	-0.050			
0.3255	20833.70	3.8240	3.8239	-1.0821	24.66	-0.01	-0.050			
0.3266	20903.55	3.8230	3.8231	-1.0853	24.64	-0.03	-0.050			
0.3277	20973.73	3.8220	3.8219	-1.0867	24.64	-0.03	-0.050			
0.3288	21044.46	3.8210	3.8209	-1.0893	24.62	-0.05	-0.050			
0.3299	21114.54	3.8200	3.8201	-1.0900	24.64	-0.03	-0.050			
0.3310	21184.67	3.8190	3.8190	-1.0885	24.62	-0.05	-0.050			
0.3321	21255.39	3.8180	3.8181	-1.0864	24.61	-0.06	-0.050			
0.3332	21324.95	3.8170	3.8171	-1.0836	24.59	-0.08	-0.050			
0.3343	21395.03	3.8160	3.8159	-1.0818	24.60	-0.07	-0.050			
0.3354	21465.19	3.8150	3.8149	-1.0795	24.62	-0.05	-0.050			
0.3365	21535.19	3.8140	3.8141	-1.0769	24.63	-0.04	-0.050			
0.3376	21604.49	3.8130	3.8130	-1.0719	24.62	-0.05	-0.050			
0.3386	21673.21	3.8120	3.8120	-1.0661	24.64	-0.03	-0.050			
0.3397	21741.12	3.8110	3.8111	-1.0595	24.66	-0.01	-0.050			
0.3407	21807.85	3.8100	3.8101	-1.0534	24.67	0.00	-0.050			
0.3418	21874.83	3.8090	3.8090	-1.0486	24.68	0.01	-0.050			
0.3428	21941.50	3.8080	3.8081	-1.0441	24.68	0.01	-0.050			
0.3439	22007.37	3.8070	3.8070	-1.0419	24.70	0.03	-0.050			
0.3449	22073.38	3.8060	3.8059	-1.0395	24.70	0.03	-0.050			
0.3459	22138.62	3.8050	3.8052	-1.0364	24.70	0.03	-0.050			
0.3469	22203.90	3.8040	3.8039	-1.0354	24.71	0.04	-0.050			
0.3480	22270.11	3.8030	3.8029	-1.0356	24.72	0.05	-0.050			
0.3490	22336.07	3.8020	3.8020	-1.0347	24.74	0.07	-0.050			
0.3501	22404.02	3.8010	3.8010	-1.0292	24.75	0.08	-0.050			
0.3511	22469.82	3.8000	3.7998	-1.0278	24.76	0.09	-0.050			
0.3522	22537.84	3.7990	3.7990	-1.0186	24.76	0.09	-0.050			
0.3532	22604.37	3.7980	3.7979	-1.0124	24.77	0.10	-0.050			
0.3542	22669.61	3.7970	3.7970	-1.0044	24.77	0.10	-0.050			
0.3552	22734.25	3.7960	3.7961	-0.9985	24.76	0.09	-0.050			
0.3562	22798.46	3.7950	3.7949	-0.9939	24.77	0.10	-0.050			
0.3572	22861.94	3.7940	3.7942	-0.9868	24.75	0.08	-0.050			
0.3582	22925.53	3.7930	3.7931	-0.9793	24.76	0.09	-0.050			
0.3592	22986.88	3.7920	3.7922	-0.9739	24.73	0.06	-0.050			
0.3601	23048.44	3.7910	3.7913	-0.9674	24.72	0.05	-0.050			
0.3611	23108.91	3.7900	3.7897	-0.9598	24.74	0.07	-0.050			
0.3620	23169.57	3.7890	3.7888	-0.9527	24.71	0.04	-0.050			
0.3630	23229.04	3.7880	3.7878	-0.9472	24.70	0.03	-0.050			
0.3639	23288.13	3.7870	3.7869	-0.9390	24.69	0.02	-0.050			
0.3648	23347.80	3.7860	3.7859	-0.9347	24.68	0.01	-0.050			
0.3657	23406.70	3.7850	3.7852	-0.9304	24.67	0.00	-0.050			
0.3666	23465.52	3.7840	3.7840	-0.9271	24.67	0.00	-0.050			
0.3676	23525.43	3.7830	3.7829	-0.9235	24.66	-0.01	-0.050			
0.3685	23585.71	3.7820	3.7822	-0.9210	24.65	-0.02	-0.050			
0.3695	23646.19	3.7810	3.7812	-0.9229	24.63	-0.04	-0.050			
0.3704	23705.14	3.7800	3.7801	-0.9177	24.61	-0.06	-0.050			
0.3713	23765.45	3.7790	3.7788	-0.9146	24.61	-0.06	-0.050			
0.3722	23823.44	3.7780	3.7780	-0.9073	24.60	-0.07	-0.050			
0.3731	23881.11	3.7770	3.7769	-0.9000	24.59	-0.08	-0.050			
0.3740	23937.86	3.7760	3.7760	-0.8949	24.60	-0.07	-0.050			
0.3749	23995.45	3.7750	3.7750	-0.8880	24.58	-0.09	-0.050			
0.3758	24052.50	3.7740	3.7740	-0.8820	24.60	-0.07	-0.050			
0.3767	24108.74	3.7730	3.7729	-0.8755	24.57	-0.10	-0.050			
0.3776	24163.94	3.7720	3.7719	-0.8670	24.56	-0.11	-0.050			
0.3784	24219.37	3.7710	3.7712	-0.8622	24.54	-0.13	-0.050			
0.3793	24274.97	3.7700	3.7700	-0.8569	24.54	-0.13	-0.050			
0.3802	24329.72	3.7690	3.7691	-0.8501	24.54	-0.13	-0.050			
0.3810	24383.98	3.7680	3.7680	-0.8420	24.53	-0.14	-0.050			
0.3818	24437.74	3.7670	3.7667	-0.8362	24.52	-0.15	-0.050			
0.3827	24491.01	3.7660	3.7662	-0.8302	24.52	-0.15	-0.050			
0.3835	24543.32	3.7650	3.7651	-0.8235	24.50	-0.17	-0.050			
0.3843	24595.65	3.7640	3.7639	-0.8178	24.50	-0.17	-0.050			
0.3851	24648.13	3.7630	3.7631	-0.8124	24.51	-0.16	-0.050			
0.3859	24699.94	3.7620	3.7620	-0.8053	24.50	-0.17	-0.050			
0.3867	24750.76	3.7610	3.7612	-0.7970	24.48	-0.19	-0.050			
0.3875	24801.36	3.7600	3.7599	-0.7920	24.49	-0.18	-0.050			
0.3883	24852.25	3.7590	3.7590	-0.7860	24.49	-0.18	-0.050			
0.3891	24902.63	3.7580	3.7579	-0.7785	24.49	-0.18	-0.050			
0.3899	24952.34	3.7570	3.7569	-0.7719	24.49	-0.18	-0.050			
0.3906	25001.52	3.7560	3.7562	-0.7641	24.50	-0.17	-0.050			
0.3914	25050.71	3.7550	3.7551	-0.7602	24.50	-0.17	-0.050			
0.3922	25099.21	3.7540	3.7542	-0.7553	24.50	-0.17	-0.050			
0.3929	25147.02	3.7530	3.7530	-0.7479	24.50	-0.17	-0.050			
0.3937	25194.42	3.7520	3.7519	-0.7414	24.50	-0.17	-0.050			
0.3944	25241.09	3.7510	3.7509	-0.7366	24.50	-0.17	-0.050			
0.3951	25288.50	3.7500	3.7501	-0.7310	24.50	-0.17	-0.050			
0.3959	25335.18	3.7490	3.7491	-0.7252	24.50	-0.17	-0.050			
0.3966	25380.69	3.7480	3.7481	-0.7226	24.51	-0.16	-0.050			
0.3973	25425.45	3.7470	3.7470	-0.7184	24.50	-0.17	-0.050			
0.3980	25470.25	3.7460	3.7459	-0.7167	24.50	-0.17	-0.050			
0.3987	25515.84	3.7450	3.7449	-0.7137	24.51	-0.16	-0.050			
0.3994	25560.27	3.7440	3.7441	-0.7140	24.52	-0.15	-0.050			
0.4001	25605.59	3.7430	3.7430	-0.7140	24.52	-0.15	-0.050			
0.4008	25651.04	3.7420	3.7421	-0.7146	24.52	-0.15	-0.050			
0.4015	25696.47	3.7410	3.7411	-0.7156	24.53	-0.14	-0.050			
0.4022	25741.91	3.7400	3.7401	-0.7166	24.54	-0.13	-0.050			
0.4029	25787.52	3.7390	3.7387	-0.7182	24.55	-0.12	-0.050			
0.4036	25833.52	3.7380	3.7383	-0.7214	24.57	-0.10	-0.050			
0.4044	25879.51	3.7370	3.7369	-0.7245	24.58	-0.09	-0.050			
0.4051	25925.36	3.7360	3.7361	-0.7283	24.56	-0.11	-0.050			
0.4058	25971.20	3.7350	3.7348	-0.7341	24.59	-0.08	-0.050			
0.4065	26017.83	3.7340	3.7342	-0.7381	24.61	-0.06	-0.050			
0.4073	26065.06	3.7330	3.7332	-0.7441	24.60	-0.07	-0.050			
0.4080	26112.41	3.7320	3.7321	-0.7525	24.61	-0.06	-0.050			
0.4087	26159.87	3.7310	3.7309	-0.7587	24.62	-0.05	-0.050			
0.4095	26208.34	3.7300	3.7299	-0.7677	24.63	-0.04	-0.050			
0.4103	26257.37	3.7290	3.7290	-0.7778	24.63	-0.04	-0.050			
0.4110	26306.03	3.7280	3.7279	-0.7851	24.65	-0.02	-0.050			
0.4118	26355.96	3.7270	3.7268	-0.7978	24.65	-0.02	-0.050			
0.4126	26407.13	3.7260	3.7260	-0.8053	24.65	-0.02	-0.050			
0.4134	26458.14	3.7250	3.7250	-0.8198	24.66	-0.01	-0.050			
0.4142	26509.55	3.7240	3.7242	-0.8340	24.67	-0.00	-0.050			
0.4150	26562.26	3.7230	3.7229	-0.8512	24.67	0.00	-0.050			
0.4159	26616.85	3.7220	3.7221	-0.8681	24.68	0.01	-0.050			
0.4168	26672.02	3.7210	3.7210	-0.8868	24.68	0.01	-0.050			
0.4176	26728.95	3.7200	3.7200	-0.9047	24.68	0.01	-0.050			
0.4185	26786.83	3.7190	3.7191	-0.9245	24.69	0.02	-0.050			
0.4195	26846.07	3.7180	3.7182	-0.9424	24.70	0.03	-0.050			
0.4204	26906.47	3.7170	3.7172	-0.9636	24.69	0.02	-0.050	-0.317	0.672	
0.4214	26968.66	3.7160	3.7158	-0.9835	24.69	0.02	-0.050			
0.4224	27031.85	3.7150	3.7150	-1.0049	24.68	0.01	-0.050			
0.4234	27097.04	3.7140	3.7141	-1.0267	24.67	0.00	-0.050			
0.4244	27163.95	3.7130	3.7130	-1.0487	24.67	0.00	-0.050			
0.4255	27231.90	3.7120	3.7119	-1.0691	24.67	0.00	-0.050			
0.4266	27301.52	3.7110	3.7111	-1.0911	24.66	-0.01	-0.050			
0.4277	27371.72	3.7100	3.7099	-1.1132	24.64	-0.03	-0.050			
0.4288	27443.48	3.7090	3.7091	-1.1373	24.64	-0.03	-0.050			
0.4300	27516.95	3.7080	3.7079	-1.1607	24.64	-0.03	-0.050			
0.4311	27591.62	3.7070	3.7070	-1.1831	24.63	-0.04	-0.050			
0.4323	27668.18	3.7060	3.7061	-1.2073	24.62	-0.05	-0.050			
0.4335	27742.44	3.7050	3.7051	-1.2347	24.62	-0.05	-0.050			
0.4347	27818.85	3.7040	3.7040	-1.2673	24.62	-0.05	-0.050			
0.4359	27899.16	3.7030	3.7033	-1.2980	24.61	-0.06	-0.050			
0.4372	27982.88	3.7020	3.7020	-1.3310	24.61	-0.06	-0.050			
0.4386	28069.26	3.7010	3.7008	-1.3606	24.62	-0.05	-0.050			
0.4400	28157.86	3.7000	3.6999	-1.3912	24.59	-0.08	-0.050	-0.981	0.369	
0.4414	28248.82	3.6990	3.6991	-1.4192	24.59	-0.08	-0.050			
0.4428	28342.08	3.6980	3.6980	-1.4484	24.58	-0.09	-0.050			
0.4443	28437.28	3.6970	3.6967	-1.4734	24.58	-0.09	-0.050			
0.4459	28534.70	3.6960	3.6960	-1.4990	24.56	-0.11	-0.050			
0.4474	28632.92	3.6950	3.6952	-1.5233	24.55	-0.12	-0.050			
0.4490	28733.33	3.6940	3.6942	-1.5471	24.54	-0.13	-0.050			
0.4506	28835.77	3.6930	3.6930	-1.5657	24.52	-0.15	-0.050			
0.4522	28938.66	3.6920	3.6922	-1.5834	24.52	-0.15	-0.050			
0.4538	29041.90	3.6910	3.6910	-1.5981	24.52	-0.15	-0.050			
0.4554	29147.99	3.6900	3.6899	-1.6043	24.51	-0.16	-0.050			
0.4571	29253.72	3.6890	3.6890	-1.6074	24.49	-0.18	-0.050			
0.4588	29360.08	3.6880	3.6879	-1.6059	24.48	-0.19	-0.050			
0.4604	29463.36	3.6870	3.6869	-1.6049	24.48	-0.19	-0.050			
0.4619	29564.36	3.6860	3.6860	-1.6091	24.48	-0.19	-0.050			
0.4635	29663.98	3.6850	3.6851	-1.6149	24.46	-0.21	-0.050			
0.4651	29765.24	3.6840	3.6841	-1.6199	24.46	-0.21	-0.050			
0.4667	29867.61	3.6830	3.6831	-1.6347	24.46	-0.21	-0.050			
0.4683	29970.00	3.6820	3.6822	-1.6514	24.46	-0.21	-0.050			
0.4699	30073.00	3.6810	3.6812	-1.6682	24.48	-0.19	-0.050			
0.4715	30176.21	3.6800	3.6803	-1.6918	24.49	-0.18	-0.050			
0.4731	30281.10	3.6790	3.6785	-1.7150	24.50	-0.17	-0.050			
0.4748	30388.42	3.6780	3.6778	-1.7455	24.51	-0.16	-0.050			
0.4765	30498.33	3.6770	3.6769	-1.7722	24.54	-0.13	-0.050			
0.4783	30610.47	3.6760	3.6761	-1.8023	24.55	-0.12	-0.050			
0.4801	30726.70	3.6750	3.6749	-1.8365	24.54	-0.13	-0.050			
0.4820	30845.37	3.6740	3.6742	-1.8709	24.56	-0.11	-0.050			
0.4839	30968.40	3.6730	3.6730	-1.9039	24.58	-0.09	-0.050			
0.4858	31093.73	3.6720	3.6722	-1.9386	24.60	-0.07	-0.050			
0.4878	31221.65	3.6710	3.6711	-1.9753	24.61	-0.06	-0.050			
0.4899	31354.24	3.6700	3.6699	-2.0132	24.60	-0.07	-0.050			
0.4920	31485.86	3.6690	3.6691	-2.0412	24.58	-0.09	-0.050			
0.4940	31616.56	3.6680	3.6682	-2.0639	24.56	-0.11	-0.050			
0.4961	31748.40	3.6670	3.6669	-2.0878	24.54	-0.13	-0.050			
0.4982	31883.04	3.6660	3.6661	-2.1110	24.52	-0.15	-0.050			
0.5003	32019.19	3.6650	3.6652	-2.1390	24.48	-0.19	-0.050			
0.5024	32155.52	3.6640	3.6639	-2.1648	24.46	-0.21	-0.050			
0.5046	32294.85	3.6630	3.6629	-2.1887	24.45	-0.22	-0.050			
0.5068	32433.84	3.6620	3.6619	-2.2147	24.43	-0.24	-0.050			
0.5089	32571.03	3.6610	3.6609	-2.2544	24.41	-0.26	-0.050			
0.5111	32711.95	3.6600	3.6599	-2.2914	24.41	-0.26	-0.050			
0.5134	32857.27	3.6590	3.6591	-2.3348	24.38	-0.29	-0.050			
0.5157	33007.19	3.6580	3.6580	-2.3767	24.36	-0.31	-0.050			
0.5181	33160.80	3.6570	3.6571	-2.4189	24.34	-0.33	-0.050			
0.5206	33316.80	3.6560	3.6561	-2.4600	24.33	-0.34	-0.050	0.421	0.611	
0.5231	33476.23	3.6550	3.6549	-2.5034	24.32	-0.35	-0.050			
0.5256	33638.07	3.6540	3.6540	-2.5501	24.32	-0.35	-0.050			
0.5282	33804.10	3.6530	3.6529	-2.5913	24.30	-0.37	-0.050			
0.5308	33972.11	3.6520	3.6520	-2.6319	24.30	-0.37	-0.050			
0.5335	34143.39	3.6510	3.6512	-2.6738	24.34	-0.33	-0.050			
0.5362	34317.09	3.6500	3.6500	-2.7137	24.35	-0.32	-0.050			
0.5390	34493.24	3.6490	3.6492	-2.7541	24.39	-0.28	-0.050			
0.5417	34671.06	3.6480	3.6480	-2.7984	24.42	-0.25	-0.050			
0.5446	34852.01	3.6470	3.6470	-2.8415	24.47	-0.20	-0.050			
0.5474	35034.40	3.6460	3.6459	-2.8883	24.51	-0.16	-0.050			
0.5503	35219.89	3.6450	3.6451	-2.9327	24.53	-0.14	-0.050			
0.5533	35408.01	3.6440	3.6439	-2.9670	24.56	-0.11	-0.050			
0.5562	35595.98	3.6430	3.6430	-2.9943	24.54	-0.13	-0.050			
0.5592	35789.50	3.6420	3.6418	-3.0267	24.55	-0.12	-0.050	0.529	0.668	
0.5623	35988.14	3.6410	3.6408	-3.0591	24.53	-0.14	-0.050			
0.5655	36189.05	3.6400	3.6400	-3.0883	24.52	-0.15	-0.050			
0.5686	36390.84	3.6390	3.6389	-3.1139	24.53	-0.14	-0.050			
0.5718	36596.68	3.6380	3.6380	-3.1254	24.52	-0.15	-0.050			
0.5750	36802.22	3.6370	3.6370	-3.1296	24.48	-0.19	-0.050			
0.5782	37004.60	3.6360	3.6360	-3.1293	24.44	-0.23	-0.050			
0.5813	37205.11	3.6350	3.6350	-3.1339	24.42	-0.25	-0.050			
0.5844	37404.17	3.6340	3.6340	-3.1393	24.40	-0.27	-0.050			
0.5875	37601.73	3.6330	3.6331	-3.1452	24.38	-0.29	-0.050			
0.5906	37797.27	3.6320	3.6320	-3.1593	24.36	-0.31	-0.050			
0.5937	37993.70	3.6310	3.6311	-3.1821	24.34	-0.33	-0.050			
0.5968	38193.94	3.6300	3.6298	-3.2168	24.32	-0.35	-0.050			
0.6000	38397.43	3.6290	3.6289	-3.2618	24.38	-0.29	-0.050			
0.6032	38606.01	3.6280	3.6280	-3.3024	24.43	-0.24	-0.050			
0.6065	38817.06	3.6270	3.6270	-3.3416	24.46	-0.21	-0.050			
0.6099	39033.14	3.6260	3.6259	-3.3829	24.50	-0.17	-0.050			
0.6133	39252.77	3.6250	3.6253	-3.4243	24.55	-0.12	-0.050			
0.6169	39482.79	3.6240	3.6240	-3.4251	24.59	-0.08	-0.050			
0.6205	39714.15	3.6230	3.6229	-3.4311	24.62	-0.05	-0.050	0.523	0.659	
0.6241	39944.17	3.6220	3.6220	-3.4250	24.61	-0.06	-0.050			
0.6276	40165.54	3.6210	3.6210	-3.3933	24.60	-0.07	-0.050			
0.6310	40381.07	3.6200	3.6200	-3.3637	24.59	-0.08	-0.050			
0.6343	40594.08	3.6190	3.6190	-3.3307	24.56	-0.11	-0.050			
0.6376	40804.89	3.6180	3.6183	-3.2851	24.52	-0.15	-0.050			
0.6408	41012.51	3.6170	3.6168	-3.2466	24.50	-0.17	-0.050			
0.6440	41213.98	3.6160	3.6160	-3.2129	24.44	-0.23	-0.050			
0.6471	41414.39	3.6150	3.6150	-3.1864	24.41	-0.26	-0.050			
0.6502	41614.50	3.6140	3.6139	-3.1662	24.38	-0.29	-0.050			
0.6533	41814.20	3.6130	3.6131	-3.1503	24.36	-0.31	-0.050			
0.6565	42013.21	3.6120	3.6121	-3.1406	24.34	-0.33	-0.050			
0.6596	42211.36	3.6110	3.6111	-3.1443	24.31	-0.36	-0.050	0.695	0.943	
0.6627	42412.53	3.6100	3.6102	-3.1592	24.30	-0.37	-0.050			
0.6660	42620.87	3.6090	3.6090	-3.1643	24.34	-0.33	-0.050			
0.6692	42828.38	3.6080	3.6079	-3.1334	24.38	-0.29	-0.050			
0.6724	43036.11	3.6070	3.6069	-3.0956	24.42	-0.25	-0.050			
0.6756	43238.44	3.6060	3.6058	-3.0475	24.47	-0.20	-0.050			
0.6787	43439.26	3.6050	3.6048	-2.9913	24.52	-0.15	-0.050			
0.6818	43636.56	3.6040	3.6036	-2.9342	24.57	-0.10	-0.050			
0.6849	43835.26	3.6030	3.6032	-2.8825	24.59	-0.08	-0.050			
0.6877	44015.01	3.6020	3.6023	-2.7848	24.56	-0.11	-0.050			
0.6904	44187.30	3.6010	3.6012	-2.6989	24.56	-0.11	-0.050			
0.6930	44352.55	3.6000	3.5999	-2.6157	24.56	-0.11	-0.050			
0.6956	44519.45	3.5990	3.5990	-2.5058	24.57	-0.10	-0.050			
0.6980	44674.11	3.5980	3.5980	-2.4347	24.59	-0.08	-0.050			
0.7003	44821.48	3.5970	3.5971	-2.3628	24.60	-0.07	-0.050	0.407	0.690	
0.7025	44962.48	3.5960	3.5960	-2.2969	24.61	-0.06	-0.050			
0.7046	45095.30	3.5950	3.5951	-2.2415	24.63	-0.04	-0.050			
0.7067	45227.04	3.5940	3.5941	-2.1930	24.63	-0.04	-0.050			
0.7086	45351.94	3.5930	3.5925	-2.1460	24.64	-0.03	-0.050			
0.7107	45482.71	3.5920	3.5917	-2.1190	24.64	-0.03	-0.050			
0.7127	45614.28	3.5910	3.5909	-2.0993	24.68	0.01	-0.050			
0.7148	45746.03	3.5900	3.5900	-2.0849	24.68	0.01	-0.050			
0.7168	45876.26	3.5890	3.5889	-2.0685	24.68	0.01	-0.050			
0.7189	46009.28	3.5880	3.5882	-2.0568	24.69	0.02	-0.050			
0.7210	46142.05	3.5870	3.5871	-2.0453	24.68	0.01	-0.050			
0.7231	46275.76	3.5860	3.5858	-2.0362	24.68	0.01	-0.050			
0.7251	46409.38	3.5850	3.5852	-2.0271	24.69	0.02	-0.050			
0.7272	46543.41	3.5840	3.5841	-2.0159	24.69	0.02	-0.050			
0.7293	46676.29	3.5830	3.5830	-1.9994	24.69	0.02	-0.050			
0.7313	46806.23	3.5820	3.5820	-1.9734	24.71	0.04	-0.050			
0.7333	46931.83	3.5810	3.5812	-1.9421	24.72	0.05	-0.050			
0.7352	47054.43	3.5800	3.5800	-1.9116	24.74	0.07	-0.050			
0.7371	47175.92	3.5790	3.5790	-1.8830	24.75	0.08	-0.050			
0.7390	47294.06	3.5780	3.5781	-1.8499	24.77	0.10	-0.050			
0.7408	47411.03	3.5770	3.5769	-1.8227	24.78	0.11	-0.050			
0.7426	47526.68	3.5760	3.5760	-1.7975	24.82	0.15	-0.050			
0.7444	47640.04	3.5750	3.5749	-1.7719	24.83	0.16	-0.050			
0.7461	47751.05	3.5740	3.5739	-1.7466	24.86	0.19	-0.050			
0.7478	47860.67	3.5730	3.5730	-1.7248	24.87	0.20	-0.050			
0.7495	47968.10	3.5720	3.5719	-1.7057	24.89	0.22	-0.050			
0.7512	48075.43	3.5710	3.5709	-1.6869	24.89	0.22	-0.050			
0.7528	48181.06	3.5700	3.5700	-1.6716	24.89	0.22	-0.050			
0.7545	48285.68	3.5690	3.5690	-1.6624	24.88	0.21	-0.050			
0.7561	48388.57	3.5680	3.5678	-1.6556	24.88	0.21	-0.050			
0.7577	48491.95	3.5670	3.5671	-1.6504	24.86	0.19	-0.050			
0.7593	48595.13	3.5660	3.5660	-1.6461	24.85	0.18	-0.050			
0.7609	48699.10	3.5650	3.5651	-1.6460	24.82	0.15	-0.050			
0.7625	48802.39	3.5640	3.5640	-1.6450	24.81	0.14	-0.050			
0.7642	48906.71	3.5630	3.5631	-1.6503	24.81	0.14	-0.050			
0.7658	49012.10	3.5620	3.5621	-1.6546	24.78	0.11	-0.050			
0.7675	49116.82	3.5610	3.5609	-1.6628	24.77	0.10	-0.050			
0.7691	49222.81	3.5600	3.5600	-1.6687	24.77	0.10	-0.050			
0.7708	49330.08	3.5590	3.5591	-1.6778	24.75	0.08	-0.050			
0.7725	49439.16	3.5580	3.5581	-1.6825	24.75	0.08	-0.050			
0.7742	49548.24	3.5570	3.5570	-1.6885	24.71	0.04	-0.050			
0.7759	49657.22	3.5560	3.5561	-1.6931	24.70	0.03	-0.050			
0.7776	49768.31	3.5550	3.5550	-1.6927	24.68	0.01	-0.050			
0.7793	49878.21	3.5540	3.5539	-1.6883	24.64	-0.03	-0.050			
0.7811	49988.82	3.5530	3.5531	-1.6845	24.63	-0.04	-0.050	0.108	0.375	
0.7828	50099.99	3.5520	3.5520	-1.6766	24.60	-0.07	-0.050			
0.7845	50209.03	3.5510	3.5513	-1.6655	24.59	-0.08	-0.050			
0.7862	50316.46	3.5500	3.5498	-1.6495	24.57	-0.10	-0.050			
0.7879	50423.25	3.5490	3.5491	-1.6320	24.57	-0.10	-0.050			
0.7895	50529.75	3.5480	3.5481	-1.6110	24.54	-0.13	-0.050			
0.7912	50634.09	3.5470	3.5468	-1.5895	24.53	-0.14	-0.050			
0.7928	50737.39	3.5460	3.5462	-1.5668	24.52	-0.15	-0.050			
0.7943	50837.76	3.5450	3.5452	-1.5403	24.53	-0.14	-0.050			
0.7959	50936.13	3.5440	3.5440	-1.5108	24.54	-0.13	-0.050			
0.7974	51032.42	3.5430	3.5429	-1.4789	24.53	-0.14	-0.050			
0.7988	51126.26	3.5420	3.5421	-1.4428	24.56	-0.11	-0.050			
0.8003	51218.44	3.5410	3.5410	-1.4073	24.58	-0.09	-0.050	0.135	0.663	
0.8017	51308.63	3.5400	3.5399	-1.3727	24.60	-0.07	-0.050			
0.8031	51396.00	3.5390	3.5390	-1.3357	24.61	-0.06	-0.050			
0.8044	51481.11	3.5380	3.5380	-1.3002	24.64	-0.03	-0.050			
0.8057	51562.72	3.5370	3.5370	-1.2626	24.64	-0.03	-0.050			
0.8069	51642.41	3.5360	3.5361	-1.2274	24.66	-0.01	-0.050			
0.8081	51720.36	3.5350	3.5351	-1.1959	24.69	0.02	-0.050			
0.8093	51795.42	3.5340	3.5340	-1.1615	24.69	0.02	-0.050			
0.8104	51866.77	3.5330	3.5330	-1.1319	24.71	0.04	-0.050			
0.8115	51936.27	3.5320	3.5320	-1.0999	24.74	0.07	-0.050			
0.8125	52003.19	3.5310	3.5310	-1.0744	24.77	0.10	-0.050			
0.8136	52069.25	3.5300	3.5299	-1.0492	24.80	0.13	-0.050			
0.8146	52132.63	3.5290	3.5290	-1.0309	24.81	0.14	-0.050			
0.8155	52193.81	3.5280	3.5280	-1.0119	24.83	0.16	-0.050			
0.8165	52256.33	3.5270	3.5271	-0.9991	24.84	0.17	-0.050			
0.8174	52314.70	3.5260	3.5261	-0.9863	24.83	0.16	-0.050			
0.8184	52374.84	3.5250	3.5251	-0.9822	24.84	0.17	-0.050			
0.8193	52436.33	3.5240	3.5240	-0.9814	24.85	0.18	-0.050			
0.8203	52497.03	3.5230	3.5230	-0.9829	24.84	0.17	-0.050	-0.855	0.552	
0.8212	52559.92	3.5220	3.5219	-0.9824	24.85	0.18	-0.050			
0.8222	52623.32	3.5210	3.5209	-0.9810	24.84	0.17	-0.050			
0.8232	52686.80	3.5200	3.5199	-0.9807	24.85	0.18	-0.050			
0.8242	52750.75	3.5190	3.5189	-0.9782	24.87	0.20	-0.050			
0.8252	52814.11	3.5180	3.5180	-0.9768	24.84	0.17	-0.050			
0.8262	52877.49	3.5170	3.5169	-0.9763	24.84	0.17	-0.050			
0.8272	52940.21	3.5160	3.5160	-0.9747	24.85	0.18	-0.050			
0.8282	53003.86	3.5150	3.5151	-0.9736	24.85	0.18	-0.050			
0.8292	53066.55	3.5140	3.5141	-0.9701	24.85	0.18	-0.050			
0.8301	53129.26	3.5130	3.5133	-0.9671	24.84	0.17	-0.050			
0.8311	53191.35	3.5120	3.5122	-0.9626	24.84	0.17	-0.050			
0.8321	53254.10	3.5110	3.5108	-0.9569	24.84	0.17	-0.050			
0.8331	53315.77	3.5100	3.5098	-0.9468	24.85	0.18	-0.050			
0.8340	53376.74	3.5090	3.5089	-0.9366	24.83	0.16	-0.050			
0.8350	53436.96	3.5080	3.5078	-0.9246	24.83	0.16	-0.050			
0.8359	53495.79	3.5070	3.5069	-0.9123	24.85	0.18	-0.050			
0.8368	53553.53	3.5060	3.5060	-0.8981	24.82	0.15	-0.050			
0.8377	53610.74	3.5050	3.5050	-0.8853	24.82	0.15	-0.050			
0.8385	53667.20	3.5040	3.5039	-0.8741	24.81	0.14	-0.050			
0.8394	53722.75	3.5030	3.5031	-0.8653	24.82	0.15	-0.050			
0.8403	53779.24	3.5020	3.5021	-0.8584	24.82	0.15	-0.050			
0.8412	53834.76	3.5010	3.5010	-0.8503	24.81	0.14	-0.050			
0.8420	53888.10	3.5000	3.5001	-0.8395	24.82	0.15	-0.050			
0.8428	53939.23	3.4990	3.4989	-0.8310	24.82	0.15	-0.050			
0.8436	53990.55	3.4980	3.4978	-0.8235	24.81	0.14	-0.050			
0.8444	54039.47	3.4970	3.4971	-0.8192	24.82	0.15	-0.050			
0.8452	54089.64	3.4960	3.4960	-0.8184	24.80	0.13	-0.050			
0.8459	54137.48	3.4950	3.4949	-0.8242	24.82	0.15	-0.050			
0.8467	54186.55	3.4940	3.4939	-0.8363	24.79	0.12	-0.050			
0.8474	54234.54	3.4930	3.4931	-0.8511	24.78	0.11	-0.050			
0.8482	54282.40	3.4920	3.4922	-0.8843	24.79	0.12	-0.050			
0.8489	54331.17	3.4910	3.4911	-0.9291	24.78	0.11	-0.050			
0.8497	54379.99	3.4900	3.4903	-0.9749	24.78	0.11	-0.050			
0.8505	54432.31	3.4890	3.4893	-1.0420	24.78	0.11	-0.050			
0.8514	54489.73	3.4880	3.4884	-1.1200	24.77	0.10	-0.050			
0.8524	54554.96	3.4870	3.4872	-1.2058	24.77	0.10	-0.050			
0.8534	54620.68	3.4860	3.4861	-1.2939	24.76	0.09	-0.050			
0.8547	54700.43	3.4850	3.4850	-1.4031	24.75	0.08	-0.050			
0.8561	54788.94	3.4840	3.4838	-1.5211	24.75	0.08	-0.050			
0.8576	54887.79	3.4830	3.4827	-1.6295	24.72	0.05	-0.050			
0.8594	54998.61	3.4820	3.4818	-1.7540	24.71	0.04	-0.050			
0.8612	55117.98	3.4810	3.4809	-1.8793	24.71	0.04	-0.050	0.228	0.778	
0.8632	55247.72	3.4800	3.4799	-1.9976	24.70	0.03	-0.050			
0.8654	55387.47	3.4790	3.4788	-2.1123	24.70	0.03	-0.050			
0.8677	55535.48	3.4780	3.4779	-2.2100	24.72	0.05	-0.050			
0.8702	55691.16	3.4770	3.4771	-2.3069	24.74	0.07	-0.050			
0.8727	55850.38	3.4760	3.4761	-2.3760	24.75	0.08	-0.050			
0.8752	56015.58	3.4750	3.4753	-2.4408	24.77	0.10	-0.050			
0.8779	56186.89	3.4740	3.4740	-2.4787	24.79	0.12	-0.050			
0.8806	56355.41	3.4730	3.4730	-2.5026	24.80	0.13	-0.050	0.622	0.771	
0.8832	56525.49	3.4720	3.4721	-2.5167	24.82	0.15	-0.050			
0.8859	56695.55	3.4710	3.4711	-2.5099	24.82	0.15	-0.050			
0.8885	56863.98	3.4700	3.4699	-2.4976	24.82	0.15	-0.050			
0.8911	57028.94	3.4690	3.4689	-2.4722	24.80	0.13	-0.050			
0.8936	57191.03	3.4680	3.4679	-2.4375	24.78	0.11	-0.050			
0.8961	57347.70	3.4670	3.4669	-2.3914	24.76	0.09	-0.050			
0.8984	57498.10	3.4660	3.4661	-2.3563	24.75	0.08	-0.050			
0.9007	57647.27	3.4650	3.4651	-2.3115	24.74	0.07	-0.050	-3.042	0.844	
0.9030	57794.55	3.4640	3.4640	-2.2639	24.71	0.04	-0.050			
0.9053	57938.65	3.4630	3.4631	-2.2123	24.68	0.01	-0.050			
0.9075	58079.92	3.4620	3.4619	-2.1549	24.68	0.01	-0.050			
0.9097	58217.97	3.4610	3.4610	-2.0975	24.67	0.00	-0.050			
0.9118	58352.81	3.4600	3.4600	-2.0368	24.63	-0.04	-0.050			
0.9138	58483.23	3.4590	3.4589	-1.9712	24.62	-0.05	-0.050			
0.9158	58610.07	3.4580	3.4579	-1.9083	24.60	-0.07	-0.050			
0.9177	58732.31	3.4570	3.4568	-1.8353	24.60	-0.07	-0.050			
0.9195	58851.20	3.4560	3.4563	-1.7622	24.58	-0.09	-0.050			
0.9213	58964.81	3.4550	3.4552	-1.6891	24.58	-0.09	-0.050			
0.9230	59073.73	3.4540	3.4540	-1.6156	24.58	-0.09	-0.050			
0.9246	59176.07	3.4530	3.4530	-1.5367	24.60	-0.07	-0.050			
0.9261	59273.31	3.4520	3.4520	-1.4582	24.60	-0.07	-0.050			
0.9276	59364.69	3.4510	3.4510	-1.3779	24.60	-0.07	-0.050			
0.9289	59449.00	3.4500	3.4500	-1.2978	24.62	-0.05	-0.050			
0.9301	59528.86	3.4490	3.4491	-1.2220	24.64	-0.03	-0.050			
0.9313	59600.06	3.4480	3.4479	-1.1455	24.66	-0.01	-0.050			
0.9323	59666.00	3.4470	3.4469	-1.0742	24.67	0.00	-0.050			
0.9332	59724.92	3.4460	3.4459	-1.0041	24.69	0.02	-0.050			
0.9342	59786.24	3.4450	3.4448	-0.9494	24.69	0.02	-0.050			
0.9350	59842.62	3.4440	3.4440	-0.8956	24.69	0.02	-0.050			
0.9359	59895.55	3.4430	3.4431	-0.8455	24.70	0.03	-0.050			
0.9366	59945.44	3.4420	3.4419	-0.7913	24.72	0.05	-0.050			
0.9374	59992.23	3.4410	3.4409	-0.7475	24.73	0.06	-0.050			
0.9381	60036.25	3.4400	3.4399	-0.7053	24.74	0.07	-0.050			
0.9387	60078.73	3.4390	3.4390	-0.6621	24.76	0.09	-0.050			
0.9393	60118.01	3.4380	3.4380	-0.6276	24.77	0.10	-0.050			
0.9399	60155.88	3.4370	3.4368	-0.5893	24.77	0.10	-0.050			
0.9405	60189.55	3.4360	3.4359	-0.5586	24.78	0.11	-0.050			
0.9410	60223.34	3.4350	3.4349	-0.5256	24.78	0.11	-0.050	0.570	0.844	
0.9414	60252.24	3.4340	3.4339	-0.4993	24.79	0.12	-0.050			
0.9419	60280.70	3.4330	3.4331	-0.4783	24.81	0.14	-0.050			
0.9423	60309.59	3.4320	3.4321	-0.4544	24.82	0.15	-0.050			
0.9427	60335.19	3.4310	3.4313	-0.4373	24.82	0.15	-0.050			
0.9432	60361.66	3.4300	3.4301	-0.4180	24.82	0.15	-0.050			
0.9435	60384.91	3.4290	3.4287	-0.4039	24.82	0.15	-0.050			
0.9439	60408.95	3.4280	3.4276	-0.3880	24.82	0.15	-0.050			
0.9442	60431.08	3.4270	3.4267	-0.3766	24.82	0.15	-0.050			
0.9446	60453.58	3.4260	3.4259	-0.3644	24.84	0.17	-0.050			
0.9449	60474.73	3.4250	3.4249	-0.3555	24.85	0.18	-0.050			
0.9453	60496.32	3.4240	3.4240	-0.3465	24.85	0.18	-0.050			
0.9456	60517.53	3.4230	3.4230	-0.3380	24.86	0.19	-0.050			
0.9459	60539.01	3.4220	3.4221	-0.3332	24.86	0.19	-0.050			
0.9462	60559.84	3.4210	3.4210	-0.3279	24.87	0.20	-0.050			
0.9466	60581.12	3.4200	3.4200	-0.3240	24.87	0.20	-0.050			
0.9469	60601.70	3.4190	3.4190	-0.3191	24.87	0.20	-0.050			
0.9472	60622.59	3.4180	3.4179	-0.3166	24.87	0.20	-0.050			
0.9475	60642.67	3.4170	3.4171	-0.3111	24.87	0.20	-0.050			
0.9478	60661.50	3.4160	3.4160	-0.3063	24.87	0.20	-0.050			
0.9481	60680.96	3.4150	3.4150	-0.3019	24.88	0.21	-0.050			
0.9484	60699.73	3.4140	3.4139	-0.2968	24.88	0.21	-0.050			
0.9487	60718.18	3.4130	3.4132	-0.2922	24.88	0.21	-0.050			
0.9490	60736.76	3.4120	3.4121	-0.2886	24.89	0.22	-0.050			
0.9493	60754.63	3.4110	3.4109	-0.2856	24.89	0.22	-0.050			
0.9496	60772.81	3.4100	3.4101	-0.2826	24.89	0.22	-0.050			
0.9499	60790.45	3.4090	3.4089	-0.2796	24.89	0.22	-0.050			
0.9501	60808.26	3.4080	3.4080	-0.2770	24.89	0.22	-0.050			
0.9504	60825.56	3.4070	3.4069	-0.2736	24.89	0.22	-0.050			
0.9507	60842.88	3.4060	3.4060	-0.2717	24.89	0.22	-0.050			
0.9509	60860.04	3.4050	3.4050	-0.2692	24.89	0.22	-0.050			
0.9512	60876.87	3.4040	3.4041	-0.2681	24.89	0.22	-0.050			
0.9515	60893.59	3.4030	3.4032	-0.2655	24.90	0.23	-0.050			
0.9517	60910.55	3.4020	3.4018	-0.2642	24.90	0.23	-0.050			
0.9520	60927.66	3.4010	3.4010	-0.2620	24.90	0.23	-0.050			
0.9523	60944.61	3.4000	3.4000	-0.2609	24.90	0.23	-0.050			
0.9525	60961.13	3.3990	3.3990	-0.2596	24.90	0.23	-0.050			
0.9528	60977.58	3.3980	3.3981	-0.2577	24.90	0.23	-0.050			
0.9530	60994.03	3.3970	3.3969	-0.2562	24.91	0.24	-0.050			
0.9533	61010.35	3.3960	3.3961	-0.2544	24.91	0.24	-0.050			
0.9535	61026.59	3.3950	3.3949	-0.2530	24.92	0.25	-0.050			
0.9538	61042.73	3.3940	3.3940	-0.2515	24.92	0.25	-0.050			
0.9540	61058.82	3.3930	3.3930	-0.2494	24.93	0.26	-0.050			
0.9543	61074.73	3.3920	3.3921	-0.2478	24.93	0.26	-0.050			
0.9545	61090.85	3.3910	3.3912	-0.2470	24.93	0.26	-0.050			
0.9548	61106.60	3.3900	3.3899	-0.2452	24.92	0.25	-0.050			
0.9550	61122.11	3.3890	3.3889	-0.2431	24.92	0.25	-0.050			
0.9553	61137.56	3.3880	3.3880	-0.2415	24.92	0.25	-0.050			
0.9555	61152.96	3.3870	3.3870	-0.2398	24.91	0.24	-0.050			
0.9558	61168.39	3.3860	3.3861	-0.2383	24.91	0.24	-0.050			
0.9560	61183.33	3.3850	3.3849	-0.2375	24.91	0.24	-0.050			
0.9562	61198.31	3.3840	3.3842	-0.2356	24.91	0.24	-0.050			
0.9565	61213.27	3.3830	3.3830	-0.2345	24.91	0.24	-0.050			
0.9567	61228.24	3.3820	3.3818	-0.2333	24.91	0.24	-0.050			
0.9569	61242.80	3.3810	3.3811	-0.2314	24.91	0.24	-0.050			
0.9571	61257.47	3.3800	3.3800	-0.2308	24.92	0.25	-0.050			
0.9574	61272.34	3.3790	3.3789	-0.2303	24.92	0.25	-0.050			
0.9576	61287.05	3.3780	3.3781	-0.2293	24.92	0.25	-0.050			
0.9578	61301.45	3.3770	3.3769	-0.2292	24.92	0.25	-0.050			
0.9581	61315.72	3.3760	3.3759	-0.2276	24.93	0.26	-0.050			
0.9583	61330.28	3.3750	3.3751	-0.2272	24.93	0.26	-0.050			
0.9585	61344.99	3.3740	3.3740	-0.2261	24.93	0.26	-0.050			
0.9587	61359.45	3.3730	3.3729	-0.2256	24.93	0.26	-0.050			
0.9590	61373.87	3.3720	3.3721	-0.2250	24.93	0.26	-0.050			
0.9592	61388.68	3.3710	3.3710	-0.2239	24.93	0.26	-0.050			
0.9594	61402.98	3.3700	3.3700	-0.2229	24.93	0.26	-0.050			
0.9596	61417.21	3.3690	3.3689	-0.2218	24.94	0.27	-0.050			
0.9599	61431.48	3.3680	3.3680	-0.2211	24.94	0.27	-0.050			
0.9601	61445.60	3.3670	3.3669	-0.2200	24.94	0.27	-0.050			
0.9603	61459.64	3.3660	3.3659	-0.2189	24.94	0.27	-0.050			
0.9605	61473.68	3.3650	3.3648	-0.2183	24.94	0.27	-0.050			
0.9607	61487.62	3.3640	3.3639	-0.2172	24.94	0.27	-0.050	0.249	0.628	
0.9610	61501.45	3.3630	3.3631	-0.2160	24.94	0.27	-0.050			
0.9612	61515.19	3.3620	3.3619	-0.2150	24.94	0.27	-0.050			
0.9614	61528.91	3.3610	3.3610	-0.2139	24.95	0.28	-0.050			
0.9616	61542.66	3.3600	3.3598	-0.2130	24.95	0.28	-0.050			
0.9618	61556.30	3.3590	3.3590	-0.2117	24.95	0.28	-0.050			
0.9620	61569.81	3.3580	3.3580	-0.2105	24.95	0.28	-0.050			
0.9622	61583.07	3.3570	3.3569	-0.2089	24.94	0.27	-0.050			
0.9624	61596.34	3.3560	3.3560	-0.2081	24.94	0.27	-0.050			
0.9627	61609.63	3.3550	3.3551	-0.2071	24.94	0.27	-0.050			
0.9629	61622.61	3.3540	3.3540	-0.2058	24.94	0.27	-0.050			
0.9631	61635.71	3.3530	3.3531	-0.2051	24.95	0.28	-0.050			
0.9633	61648.82	3.3520	3.3521	-0.2044	24.95	0.28	-0.050			
0.9635	61662.07	3.3510	3.3509	-0.2040	24.95	0.28	-0.050			
0.9637	61674.93	3.3500	3.3500	-0.2036	24.95	0.28	-0.050			
0.9639	61687.93	3.3490	3.3492	-0.2028	24.95	0.28	-0.050			
0.9641	61700.90	3.3480	3.3480	-0.2021	24.95	0.28	-0.050			
0.9643	61713.87	3.3470	3.3468	-0.2012	24.95	0.28	-0.050			
0.9645	61726.72	3.3460	3.3460	-0.2004	24.95	0.28	-0.050			
0.9647	61739.32	3.3450	3.3450	-0.1993	24.95	0.28	-0.050			
0.9649	61752.06	3.3440	3.3439	-0.1987	24.95	0.28	-0.050			
0.9651	61764.78	3.3430	3.3431	-0.1979	24.95	0.28	-0.050			
0.9653	61777.35	3.3420	3.3420	-0.1971	24.95	0.28	-0.050			
0.9655	61789.94	3.3410	3.3409	-0.1965	24.95	0.28	-0.050			
0.9657	61802.53	3.3400	3.3400	-0.1957	24.95	0.28	-0.050			
0.9659	61815.12	3.3390	3.3391	-0.1953	24.95	0.28	-0.050			
0.9661	61827.59	3.3380	3.3380	-0.1946	24.95	0.28	-0.050			
0.9662	61839.94	3.3370	3.3371	-0.1941	24.95	0.28	-0.050			
0.9664	61852.48	3.3360	3.3361	-0.1938	24.95	0.28	-0.050			
0.9666	61864.86	3.3350	3.3349	-0.1931	24.95	0.28	-0.050			
0.9668	61877.20	3.3340	3.3339	-0.1924	24.95	0.28	-0.050			
0.9670	61889.29	3.3330	3.3331	-0.1918	24.95	0.28	-0.050			
0.9672	61901.55	3.3320	3.3319	-0.1912	24.95	0.28	-0.050			
0.9674	61913.77	3.3310	3.3310	-0.1907	24.95	0.28	-0.050			
0.9676	61926.05	3.3300	3.3301	-0.1895	24.95	0.28	-0.050			
0.9678	61938.16	3.3290	3.3290	-0.1889	24.95	0.28	-0.050			
0.9680	61950.22	3.3280	3.3279	-0.1882	24.96	0.29	-0.050			
0.9682	61962.15	3.3270	3.3270	-0.1875	24.96	0.29	-0.050			
0.9683	61974.13	3.3260	3.3261	-0.1869	24.96	0.29	-0.050			
0.9685	61986.08	3.3250	3.3251	-0.1864	24.96	0.29	-0.050			
0.9687	61997.99	3.3240	3.3240	-0.1859	24.96	0.29	-0.050			
0.9689	62010.15	3.3230	3.3230	-0.1853	24.97	0.30	-0.050			
0.9691	62021.98	3.3220	3.3219	-0.1845	24.97	0.30	-0.050			
0.9693	62033.77	3.3210	3.3210	-0.1837	24.97	0.30	-0.050			
0.9695	62045.50	3.3200	3.3201	-0.1832	24.97	0.30	-0.050			
0.9696	62057.20	3.3190	3.3190	-0.1824	24.97	0.30	-0.050			
0.9698	62068.85	3.3180	3.3178	-0.1816	24.97	0.30	-0.050			
0.9700	62080.46	3.3170	3.3170	-0.1808	24.97	0.30	-0.050			
0.9702	62091.99	3.3160	3.3161	-0.1801	24.97	0.30	-0.050			
0.9704	62103.49	3.3150	3.3150	-0.1793	24.97	0.30	-0.050			
0.9705	62114.94	3.3140	3.3139	-0.1785	24.97	0.30	-0.050			
0.9707	62126.20	3.3130	3.3131	-0.1776	24.97	0.30	-0.050			
0.9709	62137.58	3.3120	3.3121	-0.1768	24.97	0.30	-0.050			
0.9711	62148.87	3.3110	3.3110	-0.1761	24.97	0.30	-0.050			
0.9713	62160.09	3.3100	3.3100	-0.1753	24.97	0.30	-0.050			
0.9714	62171.18	3.3090	3.3090	-0.1749	24.97	0.30	-0.050			
0.9716	62182.36	3.3080	3.3079	-0.1744	24.97	0.30	-0.050			
0.9718	62193.60	3.3070	3.3070	-0.1740	24.97	0.30	-0.050			
0.9719	62204.72	3.3060	3.3061	-0.1733	24.97	0.30	-0.050			
0.9721	62215.85	3.3050	3.3050	-0.1725	24.97	0.30	-0.050			
0.9723	62226.87	3.3040	3.3038	-0.1717	24.97	0.30	-0.050			
0.9725	62237.70	3.3030	3.3030	-0.1708	24.97	0.30	-0.050			
0.9726	62248.61	3.3020	3.3022	-0.1701	24.97	0.30	-0.050			
0.9728	62259.36	3.3010	3.3010	-0.1700	24.97	0.30	-0.050			
0.9730	62270.24	3.3000	3.3000	-0.1695	24.96	0.29	-0.050			
0.9731	62281.07	3.2990	3.2991	-0.1690	24.96	0.29	-0.050			
0.9733	62291.87	3.2980	3.2980	-0.1685	24.96	0.29	-0.050			
0.9735	62302.70	3.2970	3.2969	-0.1677	24.96	0.29	-0.050			
0.9736	62313.35	3.2960	3.2960	-0.1670	24.96	0.29	-0.050			
0.9738	62324.03	3.2950	3.2951	-0.1665	24.97	0.30	-0.050			
0.9740	62334.80	3.2940	3.2941	-0.1656	24.97	0.30	-0.050			
0.9741	62345.38	3.2930	3.2929	-0.1650	24.97	0.30	-0.050			
0.9743	62356.01	3.2920	3.2918	-0.1645	24.97	0.30	-0.050			
0.9745	62366.52	3.2910	3.2909	-0.1638	24.97	0.30	-0.050			
0.9746	62377.02	3.2900	3.2900	-0.1630	24.97	0.30	-0.050			
0.9748	62387.52	3.2890	3.2890	-0.1625	24.97	0.30	-0.050			
0.9750	62397.90	3.2880	3.2880	-0.1617	24.97	0.30	-0.050			
0.9751	62408.22	3.2870	3.2871	-0.1608	24.97	0.30	-0.050			
0.9753	62418.49	3.2860	3.2860	-0.1600	24.97	0.30	-0.050			
0.9754	62428.30	3.2850	3.2850	-0.1601	24.96	0.29	-0.050			
0.9756	62438.53	3.2840	3.2841	-0.1597	24.96	0.29	-0.050			
0.9758	62448.73	3.2830	3.2831	-0.1592	24.96	0.29	-0.050			
0.9759	62459.02	3.2820	3.2820	-0.1585	24.96	0.29	-0.050			
0.9761	62469.18	3.2810	3.2809	-0.1581	24.97	0.30	-0.050			
0.9762	62479.28	3.2800	3.2800	-0.1575	24.98	0.31	-0.050			
0.9764	62489.34	3.2790	3.2790	-0.1570	24.98	0.31	-0.050			
0.9766	62499.37	3.2780	3.2779	-0.1564	24.99	0.32	-0.050			
0.9767	62509.13	3.2770	3.2768	-0.1555	24.99	0.32	-0.050			
0.9769	62519.07	3.2760	3.2759	-0.1551	24.98	0.31	-0.050			
0.9770	62528.98	3.2750	3.2750	-0.1548	24.98	0.31	-0.050			
0.9772	62538.97	3.2740	3.2740	-0.1545	24.98	0.31	-0.050			
0.9773	62548.88	3.2730	3.2731	-0.1540	24.97	0.30	-0.050			
0.9775	62558.72	3.2720	3.2722	-0.1536	24.97	0.30	-0.050			
0.9776	62568.53	3.2710	3.2712	-0.1531	24.97	0.30	-0.050			
0.9778	62578.50	3.2700	3.2700	-0.1529	24.97	0.30	-0.050			
0.9779	62588.18	3.2690	3.2688	-0.1525	24.97	0.30	-0.050			
0.9781	62597.93	3.2680	3.2680	-0.1519	24.97	0.30	-0.050			
0.9782	62607.63	3.2670	3.2671	-0.1514	24.97	0.30	-0.050			
0.9784	62617.30	3.2660	3.2660	-0.1508	24.97	0.30	-0.050			
0.9785	62627.07	3.2650	3.2649	-0.1502	24.97	0.30	-0.050			
0.9787	62636.66	3.2640	3.2639	-0.1496	24.97	0.30	-0.050			
0.9788	62646.22	3.2630	3.2630	-0.1489	24.97	0.30	-0.050			
0.9790	62655.50	3.2620	3.2621	-0.1477	24.97	0.30	-0.050			
0.9791	62664.94	3.2610	3.2610	-0.1473	24.97	0.30	-0.050			
0.9793	62674.35	3.2600	3.2599	-0.1468	24.97	0.30	-0.050			
0.9794	62683.72	3.2590	3.2590	-0.1464	24.97	0.30	-0.050			
0.9796	62693.07	3.2580	3.2581	-0.1459	24.97	0.30	-0.050			
0.9797	62702.69	3.2570	3.2569	-0.1458	24.97	0.30	-0.050			
0.9799	62711.86	3.2560	3.2560	-0.1454	24.97	0.30	-0.050			
0.9800	62721.15	3.2550	3.2551	-0.1449	24.97	0.30	-0.050			
0.9802	62730.40	3.2540	3.2542	-0.1443	24.97	0.30	-0.050			
0.9803	62739.52	3.2530	3.2531	-0.1436	24.97	0.30	-0.050			
0.9804	62748.65	3.2520	3.2520	-0.1433	24.97	0.30	-0.050			
0.9806	62757.81	3.2510	3.2508	-0.1428	24.97	0.30	-0.050			
0.9807	62766.93	3.2500	3.2498	-0.1424	24.97	0.30	-0.050	0.532	0.664	
0.9809	62775.95	3.2490	3.2488	-0.1418	24.97	0.30	-0.050			
0.9810	62785.01	3.2480	3.2481	-0.1414	24.97	0.30	-0.050			
0.9812	62794.04	3.2470	3.2470	-0.1411	24.97	0.30	-0.050			
0.9813	62803.05	3.2460	3.2459	-0.1407	24.96	0.29	-0.050			
0.9814	62811.96	3.2450	3.2450	-0.1401	24.96	0.29	-0.050			
0.9816	62820.92	3.2440	3.2440	-0.1398	24.96	0.29	-0.050			
0.9817	62829.86	3.2430	3.2430	-0.1396	24.96	0.29	-0.050			
0.9819	62838.86	3.2420	3.2420	-0.1389	24.96	0.29	-0.050			
0.9820	62847.75	3.2410	3.2410	-0.1386	24.96	0.29	-0.050			
0.9821	62856.60	3.2400	3.2401	-0.1382	24.95	0.28	-0.050			
0.9823	62865.64	3.2390	3.2390	-0.1380	24.95	0.28	-0.050			
0.9824	62874.39	3.2380	3.2380	-0.1376	24.95	0.28	-0.050			
0.9825	62883.19	3.2370	3.2370	-0.1372	24.95	0.28	-0.050			
0.9827	62891.92	3.2360	3.2360	-0.1366	24.96	0.29	-0.050			
0.9828	62900.65	3.2350	3.2350	-0.1362	24.96	0.29	-0.050			
0.9830	62909.35	3.2340	3.2340	-0.1358	24.96	0.29	-0.050			
0.9831	62918.08	3.2330	3.2329	-0.1351	24.96	0.29	-0.050			
0.9832	62926.74	3.2320	3.2320	-0.1347	24.97	0.30	-0.050			
0.9834	62935.35	3.2310	3.2311	-0.1342	24.97	0.30	-0.050			
0.9835	62943.92	3.2300	3.2300	-0.1337	24.97	0.30	-0.050			
0.9836	62952.47	3.2290	3.2290	-0.1332	24.97	0.30	-0.050			
0.9838	62960.93	3.2280	3.2280	-0.1329	24.97	0.30	-0.050			
0.9839	62969.43	3.2270	3.2270	-0.1325	24.97	0.30	-0.050			
0.9840	62977.89	3.2260	3.2260	-0.1320	24.97	0.30	-0.050			
0.9842	62986.33	3.2250	3.2250	-0.1315	24.97	0.30	-0.050			
0.9843	62994.73	3.2240	3.2240	-0.1311	24.97	0.30	-0.050			
0.9844	63003.22	3.2230	3.2230	-0.1301	24.97	0.30	-0.050			
0.9846	63011.57	3.2220	3.2220	-0.1296	24.97	0.30	-0.050			
0.9847	63019.84	3.2210	3.2210	-0.1290	24.97	0.30	-0.050			
0.9848	63028.08	3.2200	3.2199	-0.1284	24.97	0.30	-0.050			
0.9849	63036.28	3.2190	3.2189	-0.1278	24.97	0.30	-0.050			
0.9851	63044.36	3.2180	3.2180	-0.1278	24.97	0.30	-0.050			
0.9852	63052.52	3.2170	3.2171	-0.1273	24.97	0.30	-0.050			
0.9853	63060.65	3.2160	3.2159	-0.1267	24.97	0.30	-0.050			
0.9854	63068.74	3.2150	3.2149	-0.1262	24.96	0.29	-0.050			
0.9856	63076.67	3.2140	3.2140	-0.1261	24.96	0.29	-0.050			
0.9857	63084.60	3.2130	3.2132	-0.1253	24.96	0.29	-0.050			
0.9858	63092.61	3.2120	3.2123	-0.1250	24.96	0.29	-0.050			
0.9859	63100.60	3.2110	3.2110	-0.1247	24.96	0.29	-0.050			
0.9861	63108.57	3.2100	3.2099	-0.1244	24.96	0.29	-0.050			
0.9862	63116.52	3.2090	3.2089	-0.1241	24.96	0.29	-0.050			
0.9863	63124.47	3.2080	3.2080	-0.1235	24.97	0.30	-0.050			
0.9864	63132.36	3.2070	3.2070	-0.1232	24.97	0.30	-0.050			
0.9866	63140.24	3.2060	3.2059	-0.1228	24.97	0.30	-0.050			
0.9867	63148.09	3.2050	3.2050	-0.1225	24.97	0.30	-0.050			
0.9868	63155.92	3.2040	3.2041	-0.1222	24.97	0.30	-0.050			
0.9869	63163.60	3.2030	3.2031	-0.1217	24.97	0.30	-0.050			
0.9871	63171.52	3.2020	3.2021	-0.1211	24.97	0.30	-0.050			
0.9872	63179.26	3.2010	3.2010	-0.1207	24.96	0.29	-0.050			
0.9873	63186.97	3.2000	3.1999	-0.1204	24.96	0.29	-0.050			
0.9874	63194.66	3.1990	3.1991	-0.1200	24.96	0.29	-0.050			
0.9875	63202.45	3.1980	3.1981	-0.1203	24.96	0.29	-0.050			
0.9877	63210.13	3.1970	3.1971	-0.1198	24.96	0.29	-0.050			
0.9878	63217.79	3.1960	3.1960	-0.1194	24.96	0.29	-0.050			
0.9879	63225.42	3.1950	3.1949	-0.1190	24.95	0.28	-0.050			
0.9880	63232.87	3.1940	3.1940	-0.1183	24.95	0.28	-0.050			
0.9881	63240.47	3.1930	3.1930	-0.1179	24.95	0.28	-0.050			
0.9883	63248.00	3.1920	3.1918	-0.1176	24.95	0.28	-0.050			
0.9884	63255.51	3.1910	3.1911	-0.1172	24.95	0.28	-0.050			
0.9885	63263.00	3.1900	3.1899	-0.1169	24.95	0.28	-0.050			
0.9886	63270.47	3.1890	3.1890	-0.1165	24.95	0.28	-0.050			
0.9887	63277.82	3.1880	3.1881	-0.1160	24.95	0.28	-0.050			
0.9888	63285.19	3.1870	3.1870	-0.1158	24.95	0.28	-0.050			
0.9889	63292.60	3.1860	3.1859	-0.1156	24.95	0.28	-0.050			
0.9891	63299.98	3.1850	3.1851	-0.1153	24.95	0.28	-0.050			
0.9892	63307.36	3.1840	3.1840	-0.1151	24.95	0.28	-0.050			
0.9893	63314.71	3.1830	3.1831	-0.1148	24.95	0.28	-0.050			
0.9894	63322.06	3.1820	3.1821	-0.1146	24.95	0.28	-0.050			
0.9895	63329.75	3.1810	3.1809	-0.1136	24.95	0.28	-0.050			
0.9896	63337.00	3.1800	3.1798	-0.1131	24.95	0.28	-0.050			
0.9898	63344.22	3.1790	3.1787	-0.1126	24.95	0.28	-0.050			
0.9899	63351.67	3.1780	3.1779	-0.1126	24.95	0.28	-0.050			
0.9900	63358.85	3.1770	3.1771	-0.1119	24.95	0.28	-0.050			
0.9901	63365.99	3.1760	3.1759	-0.1112	24.95	0.28	-0.050			
0.9902	63372.77	3.1750	3.1749	-0.1113	24.95	0.28	-0.050			
0.9903	63379.88	3.1740	3.1740	-0.1108	24.95	0.28	-0.050			
0.9904	63386.85	3.1730	3.1731	-0.1101	24.95	0.28	-0.050			
0.9905	63393.88	3.1720	3.1720	-0.1097	24.95	0.28	-0.050			
0.9906	63400.89	3.1710	3.1710	-0.1093	24.95	0.28	-0.050			
0.9907	63407.79	3.1700	3.1702	-0.1092	24.95	0.28	-0.050			
0.9909	63414.76	3.1690	3.1691	-0.1088	24.95	0.28	-0.050			
0.9910	63421.72	3.1680	3.1679	-0.1085	24.95	0.28	-0.050			
0.9911	63428.57	3.1670	3.1669	-0.1080	24.95	0.28	-0.050			
0.9912	63435.47	3.1660	3.1658	-0.1077	24.95	0.28	-0.050			
0.9913	63442.36	3.1650	3.1648	-0.1075	24.96	0.29	-0.050			
0.9914	63449.23	3.1640	3.1639	-0.1072	24.96	0.29	-0.050			
0.9915	63456.04	3.1630	3.1631	-0.1071	24.96	0.29	-0.050			
0.9916	63462.89	3.1620	3.1623	-0.1069	24.96	0.29	-0.050			
0.9917	63469.45	3.1610	3.1611	-0.1061	24.96	0.29	-0.050			
0.9918	63476.24	3.1600	3.1600	-0.1060	24.96	0.29	-0.050			
0.9919	63483.02	3.1590	3.1590	-0.1060	24.96	0.29	-0.050			
0.9920	63489.80	3.1580	3.1578	-0.1059	24.96	0.29	-0.050			
0.9921	63496.88	3.1570	3.1570	-0.1049	24.95	0.28	-0.050			
0.9922	63503.58	3.1560	3.1562	-0.1046	24.95	0.28	-0.050			
0.9924	63510.76	3.1550	3.1550	-0.1051	24.95	0.28	-0.050			
0.9925	63517.47	3.1540	3.1540	-0.1046	24.95	0.28	-0.050			
0.9926	63524.14	3.1530	3.1529	-0.1040	24.95	0.28	-0.050			
0.9927	63530.78	3.1520	3.1518	-0.1034	24.95	0.28	-0.050			
0.9928	63537.18	3.1510	3.1510	-0.1034	24.96	0.29	-0.050			
0.9929	63543.67	3.1500	3.1503	-0.1027	24.96	0.29	-0.050			
0.9930	63550.23	3.1490	3.1490	-0.1023	24.96	0.29	-0.050			
0.9931	63556.77	3.1480	3.1479	-0.1020	24.96	0.29	-0.050			
0.9932	63563.29	3.1470	3.1469	-0.1016	24.97	0.30	-0.050			
0.9933	63569.73	3.1460	3.1461	-0.1014	24.97	0.30	-0.050			
0.9934	63576.21	3.1450	3.1451	-0.1010	24.97	0.30	-0.050			
0.9935	63582.67	3.1440	3.1439	-0.1007	24.97	0.30	-0.050			
0.9936	63589.06	3.1430	3.1429	-0.1003	24.97	0.30	-0.050			
0.9937	63595.47	3.1420	3.1419	-0.1000	24.97	0.30	-0.050			
0.9938	63601.86	3.1410	3.1409	-0.0997	24.97	0.30	-0.050			
0.9939	63608.23	3.1400	3.1400	-0.0994	24.97	0.30	-0.050			
0.9940	63614.59	3.1390	3.1389	-0.0991	24.97	0.30	-0.050			
0.9941	63620.92	3.1380	3.1379	-0.0988	24.97	0.30	-0.050			
0.9942	63627.09	3.1370	3.1371	-0.0982	24.97	0.30	-0.050			
0.9943	63633.36	3.1360	3.1361	-0.0979	24.97	0.30	-0.050			
0.9944	63639.62	3.1350	3.1350	-0.0977	24.97	0.30	-0.050			
0.9945	63645.87	3.1340	3.1341	-0.0975	24.97	0.30	-0.050			
0.9946	63652.10	3.1330	3.1331	-0.0972	24.98	0.31	-0.050			
0.9947	63658.41	3.1320	3.1320	-0.0967	24.98	0.31	-0.050			
0.9948	63664.82	3.1310	3.1309	-0.0969	24.98	0.31	-0.050			
0.9949	63671.01	3.1300	3.1299	-0.0964	24.98	0.31	-0.050			
0.9950	63677.17	3.1290	3.1292	-0.0960	24.98	0.31	-0.050			
0.9951	63683.30	3.1280	3.1280	-0.0956	24.98	0.31	-0.050			
0.9951	63689.40	3.1270	3.1268	-0.0952	24.98	0.31	-0.050			
0.9952	63695.23	3.1260	3.1259	-0.0948	24.98	0.31	-0.050			
0.9953	63701.29	3.1250	3.1249	-0.0946	24.98	0.31	-0.050			
0.9954	63707.34	3.1240	3.1239	-0.0943	24.99	0.32	-0.050			
0.9955	63713.36	3.1230	3.1229	-0.0940	24.99	0.32	-0.050			
0.9956	63719.38	3.1220	3.1219	-0.0938	24.99	0.32	-0.050			
0.9957	63725.37	3.1210	3.1210	-0.0935	24.99	0.32	-0.050			
0.9958	63731.35	3.1200	3.1203	-0.0933	24.99	0.32	-0.050			
0.9959	63737.25	3.1190	3.1191	-0.0929	24.99	0.32	-0.050			
0.9960	63743.19	3.1180	3.1179	-0.0927	24.99	0.32	-0.050			
0.9961	63749.11	3.1170	3.1170	-0.0925	24.99	0.32	-0.050			
0.9962	63755.02	3.1160	3.1160	-0.0923	24.99	0.32	-0.050			
0.9963	63760.92	3.1150	3.1150	-0.0920	24.99	0.32	-0.050			
0.9964	63766.80	3.1140	3.1140	-0.0918	24.99	0.32	-0.050			
0.9964	63772.67	3.1130	3.1129	-0.0916	24.99	0.32	-0.050			
0.9965	63778.58	3.1120	3.1120	-0.0912	24.99	0.32	-0.050			
0.9966	63784.40	3.1110	3.1111	-0.0909	24.99	0.32	-0.050			
0.9967	63790.21	3.1100	3.1101	-0.0907	24.99	0.32	-0.050			
0.9968	63796.01	3.1090	3.1090	-0.0904	24.99	0.32	-0.050			
0.9969	63801.78	3.1080	3.1080	-0.0901	24.98	0.31	-0.050			
0.9970	63807.55	3.1070	3.1070	-0.0899	24.98	0.31	-0.050			
0.9971	63813.48	3.1060	3.1059	-0.0898	24.98	0.31	-0.050			
0.9972	63819.05	3.1050	3.1049	-0.0897	24.98	0.31	-0.050			
0.9973	63824.78	3.1040	3.1039	-0.0894	24.98	0.31	-0.050			
0.9974	63830.49	3.1030	3.1029	-0.0891	24.97	0.30	-0.050			
0.9974	63836.19	3.1020	3.1022	-0.0888	24.97	0.30	-0.050			
0.9975	63841.87	3.1010	3.1012	-0.0886	24.97	0.30	-0.050			
0.9976	63847.53	3.1000	3.1000	-0.0883	24.97	0.30	-0.050			
0.9977	63853.19	3.0990	3.0989	-0.0878	24.97	0.30	-0.050			
0.9978	63858.80	3.0980	3.0979	-0.0875	24.97	0.30	-0.050			
0.9979	63864.39	3.0970	3.0970	-0.0872	24.97	0.30	-0.050			
0.9980	63869.96	3.0960	3.0960	-0.0869	24.98	0.31	-0.050			
0.9981	63875.52	3.0950	3.0950	-0.0866	24.98	0.31	-0.050			
0.9981	63881.05	3.0940	3.0939	-0.0864	24.98	0.31	-0.050			
0.9982	63886.57	3.0930	3.0932	-0.0861	24.98	0.31	-0.050			
0.9983	63892.12	3.0920	3.0924	-0.0858	24.98	0.31	-0.050			
0.9984	63897.54	3.0910	3.0911	-0.0856	24.98	0.31	-0.050			
0.9985	63903.01	3.0900	3.0900	-0.0853	24.98	0.31	-0.050			
0.9986	63908.46	3.0890	3.0890	-0.0851	24.98	0.31	-0.050			
0.9987	63913.90	3.0880	3.0880	-0.0848	24.98	0.31	-0.050			
0.9987	63919.32	3.0870	3.0869	-0.0845	24.97	0.30	-0.050			
0.9988	63924.72	3.0860	3.0859	-0.0842	24.97	0.30	-0.050			
0.9989	63930.16	3.0850	3.0849	-0.0840	24.97	0.30	-0.050			
0.9990	63935.53	3.0840	3.0839	-0.0837	24.97	0.30	-0.050			
0.9991	63940.85	3.0830	3.0830	-0.0835	24.97	0.30	-0.050			
0.9992	63946.19	3.0820	3.0821	-0.0832	24.97	0.30	-0.050			
0.9992	63951.50	3.0810	3.0810	-0.0829	24.97	0.30	-0.050			
0.9993	63956.80	3.0800	3.0799	-0.0826	24.97	0.30	-0.050			
0.9994	63961.96	3.0790	3.0789	-0.0821	24.97	0.30	-0.050			
0.9995	63967.20	3.0780	3.0779	-0.0819	24.97	0.30	-0.050			
0.9996	63972.44	3.0770	3.0769	-0.0817	24.97	0.30	-0.050			
0.9997	63977.66	3.0760	3.0760	-0.0814	24.97	0.30	-0.050			
0.9997	63982.50	3.0750	3.0751	-0.0828	24.97	0.30	-0.050			
0.9998	63987.80	3.0740	3.0741	-0.0829	24.97	0.30	-0.050			
0.9999	63993.11	3.0730	3.0730	-0.0830	24.97	0.30	-0.050			
1.0000	63999.33	3.0720	3.0721	-0.0811	24.97	0.30	-0.050			
1.0001	64004.65	3.0710	3.0708	-0.0818	24.97	0.30	-0.050			
1.0002	64009.87	3.0700	3.0697	-0.0813	24.97	0.30	-0.050			
1.0002	64015.06	3.0690	3.0687	-0.0809	24.97	0.30	-0.050			
1.0003	64020.22	3.0680	3.0677	-0.0805	24.97	0.30	-0.050			
1.0004	64025.36	3.0670	3.0667	-0.0801	24.98	0.31	-0.050			
1.0005	64030.47	3.0660	3.0657	-0.0797	24.98	0.31	-0.050			
1.0006	64035.56	3.0650	3.0647	-0.0792	24.98	0.31	-0.050			
1.0006	64040.62	3.0640	3.0637	-0.0788	24.98	0.31	-0.050			
1.0007	64046.17	3.0630	3.0626	-0.0793	24.98	0.31	-0.050			
1.0008	64051.22	3.0620	3.0620	-0.0785	24.98	0.31	-0.050			
1.0009	64055.89	3.0610	3.0608	-0.0784	24.98	0.31	-0.050			
1.0010	64060.90	3.0600	3.0598	-0.0780	24.98	0.31	-0.050			
1.0010	64065.87	3.0590	3.0587	-0.0775	24.98	0.31	-0.050			
1.0011	64070.81	3.0580	3.0577	-0.0770	24.98	0.31	-0.050			
1.0012	64075.72	3.0570	3.0567	-0.0765	24.98	0.31	-0.050			
1.0013	64080.60	3.0560	3.0557	-0.0760	24.99	0.32	-0.050			
1.0013	64085.52	3.0550	3.0547	-0.0755	24.99	0.32	-0.050			
1.0014	64090.34	3.0540	3.0537	-0.0750	24.99	0.32	-0.050			
1.0015	64094.61	3.0530	3.0528	-0.0751	24.99	0.32	-0.050			
1.0015	64099.15	3.0520	3.0519	-0.0729	24.99	0.32	-0.050			
1.0016	64103.82	3.0510	3.0510	-0.0730	24.99	0.32	-0.050			
1.0017	64108.49	3.0500	3.0500	-0.0731	24.99	0.32	-0.050			
1.0018	64113.17	3.0490	3.0490	-0.0731	24.99	0.32	-0.050			
1.0018	64117.85	3.0480	3.0480	-0.0732	24.99	0.32	-0.050			
1.0019	64122.54	3.0470	3.0471	-0.0732	24.99	0.32	-0.050			
1.0020	64127.33	3.0460	3.0460	-0.0730	24.99	0.32	-0.050			
1.0021	64132.00	3.0450	3.0450	-0.0730	25.00	0.33	-0.050			
1.0021	64136.68	3.0440	3.0440	-0.0730	25.00	0.33	-0.050			
1.0022	64141.35	3.0430	3.0430	-0.0730	25.00	0.33	-0.050			
1.0023	64146.02	3.0420	3.0421	-0.0730	25.00	0.33	-0.050			
1.0024	64150.97	3.0410	3.0411	-0.0733	25.00	0.33	-0.050			
1.0024	64155.66	3.0400	3.0401	-0.0732	25.00	0.33	-0.050			
1.0025	64160.34	3.0390	3.0390	-0.0731	25.00	0.33	-0.050			
1.0026	64165.13	3.0380	3.0380	-0.0726	25.00	0.33	-0.050			
1.0027	64169.77	3.0370	3.0370	-0.0724	25.00	0.33	-0.050			
1.0027	64174.40	3.0360	3.0359	-0.0722	25.00	0.33	-0.050			
1.0028	64179.01	3.0350	3.0349	-0.0720	25.00	0.33	-0.050			
1.0029	64183.61	3.0340	3.0339	-0.0718	25.00	0.33	-0.050			
1.0029	64188.25	3.0330	3.0329	-0.0716	24.99	0.32	-0.050			
1.0030	64192.82	3.0320	3.0319	-0.0714	24.99	0.32	-0.050			
1.0031	64197.28	3.0310	3.0309	-0.0713	24.99	0.32	-0.050			
1.0032	64201.83	3.0300	3.0300	-0.0711	24.99	0.32	-0.050			
1.0032	64206.38	3.0290	3.0291	-0.0709	24.99	0.32	-0.050			
1.0033	64210.91	3.0280	3.0284	-0.0707	24.99	0.32	-0.050			
1.0034	64215.43	3.0270	3.0272	-0.0705	24.99	0.32	-0.050			
1.0034	64219.96	3.0260	3.0259	-0.0704	24.99	0.32	-0.050			
1.0035	64224.46	3.0250	3.0249	-0.0702	24.99	0.32	-0.050			
1.0036	64228.95	3.0240	3.0239	-0.0700	24.99	0.32	-0.050			
1.0036	64233.41	3.0230	3.0230	-0.0698	24.99	0.32	-0.050			
1.0037	64237.87	3.0220	3.0220	-0.0696	24.99	0.32	-0.050			
1.0038	64242.32	3.0210	3.0209	-0.0694	24.99	0.32	-0.050			
1.0039	64246.76	3.0200	3.0199	-0.0693	24.99	0.32	-0.050			
1.0039	64251.18	3.0190	3.0190	-0.0691	24.99	0.32	-0.050			
1.0040	64255.48	3.0180	3.0180	-0.0687	24.99	0.32	-0.050			
1.0041	64259.87	3.0170	3.0170	-0.0686	24.99	0.32	-0.050			
1.0041	64264.25	3.0160	3.0162	-0.0684	24.99	0.32	-0.050			
1.0042	64268.63	3.0150	3.0152	-0.0683	24.99	0.32	-0.050			
1.0043	64273.00	3.0140	3.0141	-0.0682	24.99	0.32	-0.050			
1.0043	64277.36	3.0130	3.0130	-0.0681	24.99	0.32	-0.050			
1.0044	64281.71	3.0120	3.0119	-0.0679	24.99	0.32	-0.050			
1.0045	64286.28	3.0110	3.0110	-0.0676	24.99	0.32	-0.050			
1.0045	64290.59	3.0100	3.0100	-0.0673	24.99	0.32	-0.050			
1.0046	64294.90	3.0090	3.0090	-0.0671	25.00	0.33	-0.050			
1.0047	64299.18	3.0080	3.0080	-0.0668	25.00	0.33	-0.050			
1.0047	64303.44	3.0070	3.0070	-0.0665	25.00	0.33	-0.050			
1.0048	64307.68	3.0060	3.0060	-0.0662	25.00	0.33	-0.050			
1.0049	64311.91	3.0050	3.0049	-0.0659	25.00	0.33	-0.050			
