Ah_balance (normalized)	Ah_balance (mAh)	Voltage - fit (V)	Voltage -  interpolate (V)	dQ/dV (1/V)	Temperature (°C)	Temperature - diff (°C)	Current (C)	R_DC 0ms (mOhm)	R_DC 50ms (mOhm)	R_DC 50 ms PEC (mOhm)
0.0003	17.63	4.1880	4.1878	-0.4253	25.31	0.00	-0.050			
0.0007	45.79	4.1870	4.1866	-0.4588	25.31	0.00	-0.050			
0.0012	76.54	4.1860	4.1858	-0.4932	25.31	0.00	-0.050			
0.0017	109.66	4.1850	4.1848	-0.5219	25.31	0.00	-0.050			
0.0023	144.53	4.1840	4.1839	-0.5454	25.31	0.00	-0.050			
0.0028	180.67	4.1830	4.1829	-0.5654	25.29	-0.02	-0.050			
0.0034	218.10	4.1820	4.1820	-0.5833	25.27	-0.04	-0.050			
0.0040	256.87	4.1810	4.1810	-0.5992	25.28	-0.03	-0.050			
0.0046	296.37	4.1800	4.1799	-0.6132	25.27	-0.04	-0.050			
0.0053	336.66	4.1790	4.1791	-0.6258	25.26	-0.05	-0.050			
0.0059	378.18	4.1780	4.1781	-0.6358	25.25	-0.06	-0.050			
0.0066	419.70	4.1770	4.1771	-0.6461	25.25	-0.06	-0.050			
0.0073	464.59	4.1760	4.1761	-0.6616	25.25	-0.06	-0.050			
0.0079	507.65	4.1750	4.1750	-0.6703	25.24	-0.07	-0.050			
0.0086	551.11	4.1740	4.1741	-0.6779	25.24	-0.07	-0.050			
0.0093	594.87	4.1730	4.1730	-0.6836	25.23	-0.08	-0.050			
0.0100	639.18	4.1720	4.1721	-0.6894	25.23	-0.08	-0.050			
0.0107	683.67	4.1710	4.1710	-0.6947	25.22	-0.09	-0.050			
0.0114	728.62	4.1700	4.1699	-0.7002	25.22	-0.09	-0.050			
0.0121	773.73	4.1690	4.1689	-0.7050	25.23	-0.08	-0.050			
0.0128	819.37	4.1680	4.1679	-0.7088	25.22	-0.09	-0.050			
0.0135	864.98	4.1670	4.1670	-0.7130	25.21	-0.10	-0.050			
0.0142	910.85	4.1660	4.1660	-0.7169	25.21	-0.10	-0.050			
0.0150	957.23	4.1650	4.1650	-0.7214	25.21	-0.10	-0.050			
0.0157	1003.51	4.1640	4.1641	-0.7254	25.19	-0.12	-0.050			
0.0164	1050.01	4.1630	4.1630	-0.7290	25.17	-0.14	-0.050			
0.0171	1096.76	4.1620	4.1620	-0.7325	25.18	-0.13	-0.050			
0.0179	1143.90	4.1610	4.1610	-0.7362	25.19	-0.12	-0.050			
0.0186	1191.28	4.1600	4.1601	-0.7398	25.19	-0.12	-0.050			
0.0194	1238.63	4.1590	4.1590	-0.7430	25.18	-0.13	-0.050			
0.0201	1286.47	4.1580	4.1580	-0.7455	25.18	-0.13	-0.050	0.564	0.670	
0.0209	1334.44	4.1570	4.1570	-0.7483	25.17	-0.14	-0.050			
0.0216	1382.21	4.1560	4.1560	-0.7513	25.17	-0.14	-0.050			
0.0224	1430.52	4.1550	4.1551	-0.7537	25.17	-0.14	-0.050			
0.0231	1478.92	4.1540	4.1540	-0.7558	25.17	-0.14	-0.050			
0.0239	1527.69	4.1530	4.1530	-0.7581	25.17	-0.14	-0.050			
0.0246	1576.46	4.1520	4.1520	-0.7609	25.17	-0.14	-0.050			
0.0254	1625.28	4.1510	4.1510	-0.7631	25.17	-0.14	-0.050			
0.0262	1674.21	4.1500	4.1501	-0.7655	25.17	-0.14	-0.050			
0.0269	1723.50	4.1490	4.1490	-0.7675	25.17	-0.14	-0.050			
0.0277	1772.87	4.1480	4.1479	-0.7692	25.17	-0.14	-0.050			
0.0285	1822.17	4.1470	4.1469	-0.7702	25.17	-0.14	-0.050			
0.0292	1871.47	4.1460	4.1460	-0.7729	25.17	-0.14	-0.050			
0.0300	1920.83	4.1450	4.1450	-0.7745	25.17	-0.14	-0.050			
0.0308	1970.43	4.1440	4.1439	-0.7760	25.17	-0.14	-0.050			
0.0316	2020.08	4.1430	4.1429	-0.7773	25.15	-0.16	-0.050			
0.0323	2070.05	4.1420	4.1421	-0.7787	25.17	-0.14	-0.050			
0.0331	2119.85	4.1410	4.1410	-0.7807	25.17	-0.14	-0.050			
0.0339	2169.88	4.1400	4.1400	-0.7824	25.15	-0.16	-0.050			
0.0347	2220.06	4.1390	4.1389	-0.7840	25.13	-0.18	-0.050			
0.0355	2270.46	4.1380	4.1381	-0.7850	25.12	-0.19	-0.050			
0.0363	2320.78	4.1370	4.1370	-0.7867	25.11	-0.20	-0.050			
0.0370	2371.09	4.1360	4.1361	-0.7880	25.10	-0.21	-0.050			
0.0378	2421.56	4.1350	4.1351	-0.7897	25.08	-0.23	-0.050			
0.0386	2472.37	4.1340	4.1341	-0.7919	25.08	-0.23	-0.050			
0.0394	2523.11	4.1330	4.1330	-0.7929	25.07	-0.24	-0.050			
0.0402	2573.58	4.1320	4.1320	-0.7941	25.06	-0.25	-0.050	0.432	0.566	
0.0410	2624.51	4.1310	4.1310	-0.7956	25.05	-0.26	-0.050			
0.0418	2675.44	4.1300	4.1300	-0.7974	25.05	-0.26	-0.050			
0.0426	2726.81	4.1290	4.1290	-0.7985	25.05	-0.26	-0.050			
0.0434	2777.99	4.1280	4.1279	-0.7998	25.05	-0.26	-0.050			
0.0442	2829.01	4.1270	4.1270	-0.8015	25.05	-0.26	-0.050			
0.0450	2880.31	4.1260	4.1260	-0.8024	25.05	-0.26	-0.050			
0.0458	2932.03	4.1250	4.1250	-0.8029	25.03	-0.28	-0.050			
0.0466	2983.73	4.1240	4.1240	-0.8038	25.02	-0.29	-0.050			
0.0474	3035.08	4.1230	4.1231	-0.8053	25.02	-0.29	-0.050			
0.0482	3086.72	4.1220	4.1219	-0.8062	25.02	-0.29	-0.050			
0.0490	3138.08	4.1210	4.1210	-0.8077	25.03	-0.28	-0.050			
0.0498	3189.67	4.1200	4.1201	-0.8087	25.01	-0.30	-0.050			
0.0507	3241.73	4.1190	4.1189	-0.8097	25.03	-0.28	-0.050			
0.0515	3293.58	4.1180	4.1180	-0.8112	25.01	-0.30	-0.050			
0.0523	3345.34	4.1170	4.1170	-0.8118	25.02	-0.29	-0.050			
0.0531	3397.30	4.1160	4.1160	-0.8129	25.02	-0.29	-0.050			
0.0539	3449.44	4.1150	4.1149	-0.8135	25.01	-0.30	-0.050			
0.0547	3501.67	4.1140	4.1139	-0.8143	25.01	-0.30	-0.050			
0.0555	3553.70	4.1130	4.1129	-0.8156	25.03	-0.28	-0.050			
0.0563	3605.81	4.1120	4.1119	-0.8172	25.01	-0.30	-0.050			
0.0572	3657.96	4.1110	4.1111	-0.8185	25.01	-0.30	-0.050			
0.0580	3710.54	4.1100	4.1101	-0.8198	25.00	-0.31	-0.050			
0.0588	3763.21	4.1090	4.1090	-0.8209	25.01	-0.30	-0.050			
0.0596	3816.02	4.1080	4.1081	-0.8219	25.03	-0.28	-0.050			
0.0604	3868.51	4.1070	4.1071	-0.8226	25.03	-0.28	-0.050			
0.0613	3921.16	4.1060	4.1060	-0.8243	25.04	-0.27	-0.050			
0.0621	3974.15	4.1050	4.1049	-0.8262	25.06	-0.25	-0.050			
0.0629	4027.21	4.1040	4.1041	-0.8271	25.05	-0.26	-0.050			
0.0637	4079.86	4.1030	4.1029	-0.8265	25.06	-0.25	-0.050			
0.0646	4132.81	4.1020	4.1020	-0.8267	25.07	-0.24	-0.050			
0.0654	4185.73	4.1010	4.1010	-0.8279	25.07	-0.24	-0.050			
0.0662	4238.86	4.1000	4.1001	-0.8287	25.07	-0.24	-0.050			
0.0671	4292.22	4.0990	4.0989	-0.8293	25.08	-0.23	-0.050			
0.0679	4345.32	4.0980	4.0980	-0.8297	25.10	-0.21	-0.050			
0.0687	4398.69	4.0970	4.0970	-0.8309	25.09	-0.22	-0.050			
0.0696	4451.84	4.0960	4.0960	-0.8308	25.10	-0.21	-0.050			
0.0704	4505.05	4.0950	4.0950	-0.8312	25.11	-0.20	-0.050			
0.0712	4558.24	4.0940	4.0940	-0.8312	25.10	-0.21	-0.050			
0.0721	4611.56	4.0930	4.0929	-0.8319	25.11	-0.20	-0.050			
0.0729	4664.58	4.0920	4.0920	-0.8312	25.11	-0.20	-0.050			
0.0737	4717.86	4.0910	4.0911	-0.8321	25.12	-0.19	-0.050			
0.0745	4771.00	4.0900	4.0900	-0.8326	25.12	-0.19	-0.050			
0.0754	4824.36	4.0890	4.0891	-0.8336	25.11	-0.20	-0.050			
0.0762	4877.56	4.0880	4.0880	-0.8336	25.11	-0.20	-0.050			
0.0770	4930.90	4.0870	4.0870	-0.8343	25.11	-0.20	-0.050			
0.0779	4984.14	4.0860	4.0860	-0.8344	25.11	-0.20	-0.050			
0.0787	5037.56	4.0850	4.0850	-0.8352	25.11	-0.20	-0.050			
0.0795	5090.98	4.0840	4.0840	-0.8366	25.11	-0.20	-0.050			
0.0804	5144.65	4.0830	4.0830	-0.8375	25.11	-0.20	-0.050			
0.0812	5198.17	4.0820	4.0819	-0.8382	25.11	-0.20	-0.050			
0.0821	5251.63	4.0810	4.0810	-0.8396	25.11	-0.20	-0.050			
0.0829	5305.36	4.0800	4.0800	-0.8405	25.11	-0.20	-0.050			
0.0837	5359.14	4.0790	4.0790	-0.8422	25.11	-0.20	-0.050			
0.0846	5413.25	4.0780	4.0780	-0.8437	25.11	-0.20	-0.050			
0.0854	5467.24	4.0770	4.0771	-0.8441	25.12	-0.19	-0.050			
0.0863	5521.67	4.0760	4.0760	-0.8445	25.12	-0.19	-0.050			
0.0871	5575.67	4.0750	4.0750	-0.8457	25.11	-0.20	-0.050			
0.0880	5629.76	4.0740	4.0740	-0.8466	25.12	-0.19	-0.050			
0.0888	5684.00	4.0730	4.0729	-0.8476	25.12	-0.19	-0.050			
0.0897	5738.52	4.0720	4.0720	-0.8491	25.11	-0.20	-0.050			
0.0905	5792.80	4.0710	4.0712	-0.8496	25.11	-0.20	-0.050			
0.0914	5847.64	4.0700	4.0699	-0.8490	25.12	-0.19	-0.050			
0.0922	5901.88	4.0690	4.0690	-0.8496	25.12	-0.19	-0.050			
0.0931	5956.36	4.0680	4.0680	-0.8500	25.11	-0.20	-0.050			
0.0939	6010.86	4.0670	4.0670	-0.8507	25.12	-0.19	-0.050			
0.0948	6065.36	4.0660	4.0660	-0.8509	25.11	-0.20	-0.050			
0.0956	6119.56	4.0650	4.0650	-0.8518	25.11	-0.20	-0.050			
0.0965	6173.99	4.0640	4.0640	-0.8516	25.12	-0.19	-0.050			
0.0973	6228.41	4.0630	4.0631	-0.8523	25.13	-0.18	-0.050			
0.0982	6282.83	4.0620	4.0619	-0.8535	25.11	-0.20	-0.050			
0.0990	6337.17	4.0610	4.0610	-0.8537	25.11	-0.20	-0.050			
0.0999	6392.26	4.0600	4.0600	-0.8542	25.11	-0.20	-0.050	0.559	0.602	
0.1007	6446.78	4.0590	4.0590	-0.8546	25.11	-0.20	-0.050			
0.1016	6501.59	4.0580	4.0580	-0.8555	25.11	-0.20	-0.050			
0.1024	6556.25	4.0570	4.0570	-0.8572	25.13	-0.18	-0.050			
0.1033	6610.97	4.0560	4.0560	-0.8582	25.11	-0.20	-0.050			
0.1042	6665.98	4.0550	4.0551	-0.8587	25.11	-0.20	-0.050			
0.1050	6720.74	4.0540	4.0540	-0.8591	25.12	-0.19	-0.050			
0.1059	6775.78	4.0530	4.0531	-0.8607	25.13	-0.18	-0.050			
0.1067	6830.93	4.0520	4.0520	-0.8622	25.11	-0.20	-0.050			
0.1076	6886.32	4.0510	4.0510	-0.8636	25.11	-0.20	-0.050			
0.1085	6941.89	4.0500	4.0499	-0.8650	25.11	-0.20	-0.050			
0.1093	6997.44	4.0490	4.0489	-0.8658	25.11	-0.20	-0.050			
0.1102	7052.40	4.0480	4.0480	-0.8663	25.11	-0.20	-0.050			
0.1111	7107.98	4.0470	4.0470	-0.8670	25.11	-0.20	-0.050			
0.1119	7163.47	4.0460	4.0460	-0.8676	25.11	-0.20	-0.050			
0.1128	7219.03	4.0450	4.0450	-0.8681	25.11	-0.20	-0.050			
0.1137	7274.77	4.0440	4.0440	-0.8687	25.11	-0.20	-0.050			
0.1145	7330.47	4.0430	4.0430	-0.8699	25.11	-0.20	-0.050			
0.1154	7386.10	4.0420	4.0420	-0.8707	25.12	-0.19	-0.050			
0.1163	7441.89	4.0410	4.0410	-0.8714	25.11	-0.20	-0.050			
0.1172	7497.82	4.0400	4.0400	-0.8732	25.11	-0.20	-0.050			
0.1180	7553.59	4.0390	4.0390	-0.8735	25.11	-0.20	-0.050			
0.1189	7609.37	4.0380	4.0380	-0.8738	25.11	-0.20	-0.050			
0.1198	7665.34	4.0370	4.0370	-0.8737	25.11	-0.20	-0.050	0.257	0.530	
0.1206	7721.21	4.0360	4.0360	-0.8744	25.11	-0.20	-0.050			
0.1215	7777.33	4.0350	4.0350	-0.8754	25.11	-0.20	-0.050			
0.1224	7833.23	4.0340	4.0339	-0.8765	25.11	-0.20	-0.050			
0.1233	7889.31	4.0330	4.0330	-0.8773	25.11	-0.20	-0.050			
0.1241	7945.45	4.0320	4.0320	-0.8782	25.11	-0.20	-0.050			
0.1250	8001.61	4.0310	4.0310	-0.8795	25.11	-0.20	-0.050			
0.1259	8058.06	4.0300	4.0300	-0.8806	25.11	-0.20	-0.050			
0.1268	8114.44	4.0290	4.0291	-0.8814	25.12	-0.19	-0.050			
0.1277	8170.78	4.0280	4.0280	-0.8826	25.11	-0.20	-0.050			
0.1286	8227.35	4.0270	4.0270	-0.8842	25.11	-0.20	-0.050			
0.1294	8283.82	4.0260	4.0260	-0.8853	25.11	-0.20	-0.050			
0.1303	8340.69	4.0250	4.0249	-0.8862	25.12	-0.19	-0.050			
0.1312	8397.33	4.0240	4.0241	-0.8874	25.12	-0.19	-0.050			
0.1321	8454.11	4.0230	4.0230	-0.8882	25.13	-0.18	-0.050			
0.1330	8510.96	4.0220	4.0221	-0.8895	25.14	-0.17	-0.050			
0.1339	8568.15	4.0210	4.0210	-0.8898	25.12	-0.19	-0.050			
0.1348	8625.26	4.0200	4.0201	-0.8906	25.13	-0.18	-0.050			
0.1357	8682.41	4.0190	4.0190	-0.8914	25.13	-0.18	-0.050			
0.1366	8739.65	4.0180	4.0180	-0.8923	25.12	-0.19	-0.050			
0.1375	8797.03	4.0170	4.0170	-0.8930	25.12	-0.19	-0.050			
0.1383	8853.89	4.0160	4.0160	-0.8937	25.13	-0.18	-0.050			
0.1392	8911.04	4.0150	4.0150	-0.8942	25.11	-0.20	-0.050			
0.1401	8968.30	4.0140	4.0140	-0.8943	25.11	-0.20	-0.050			
0.1410	9025.36	4.0130	4.0131	-0.8952	25.12	-0.19	-0.050			
0.1419	9082.62	4.0120	4.0120	-0.8964	25.13	-0.18	-0.050			
0.1428	9140.10	4.0110	4.0110	-0.8972	25.13	-0.18	-0.050			
0.1437	9197.52	4.0100	4.0100	-0.8976	25.12	-0.19	-0.050			
0.1446	9255.02	4.0090	4.0089	-0.8989	25.13	-0.18	-0.050			
0.1455	9312.40	4.0080	4.0080	-0.8986	25.13	-0.18	-0.050			
0.1464	9370.00	4.0070	4.0069	-0.8993	25.13	-0.18	-0.050			
0.1473	9427.66	4.0060	4.0060	-0.8998	25.13	-0.18	-0.050			
0.1482	9485.20	4.0050	4.0049	-0.9017	25.13	-0.18	-0.050			
0.1491	9542.81	4.0040	4.0040	-0.9022	25.13	-0.18	-0.050			
0.1500	9600.50	4.0030	4.0030	-0.9039	25.14	-0.17	-0.050			
0.1509	9658.66	4.0020	4.0020	-0.9046	25.15	-0.16	-0.050			
0.1518	9716.60	4.0010	4.0010	-0.9065	25.16	-0.15	-0.050			
0.1527	9774.57	4.0000	4.0000	-0.9078	25.16	-0.15	-0.050			
0.1536	9832.39	3.9990	3.9991	-0.9095	25.14	-0.17	-0.050			
0.1545	9890.44	3.9980	3.9980	-0.9110	25.13	-0.18	-0.050			
0.1555	9948.99	3.9970	3.9971	-0.9117	25.13	-0.18	-0.050			
0.1564	10007.21	3.9960	3.9960	-0.9128	25.15	-0.16	-0.050			
0.1573	10065.55	3.9950	3.9951	-0.9144	25.13	-0.18	-0.050			
0.1582	10124.22	3.9940	3.9940	-0.9165	25.13	-0.18	-0.050			
0.1591	10182.95	3.9930	3.9931	-0.9175	25.13	-0.18	-0.050			
0.1600	10241.93	3.9920	3.9919	-0.9188	25.13	-0.18	-0.050	0.505	0.578	
0.1610	10300.92	3.9910	3.9910	-0.9200	25.13	-0.18	-0.050			
0.1619	10359.99	3.9900	3.9900	-0.9215	25.14	-0.17	-0.050			
0.1628	10419.17	3.9890	3.9891	-0.9222	25.14	-0.17	-0.050			
0.1637	10478.34	3.9880	3.9880	-0.9231	25.14	-0.17	-0.050			
0.1646	10537.32	3.9870	3.9870	-0.9248	25.13	-0.18	-0.050			
0.1656	10596.58	3.9860	3.9860	-0.9259	25.14	-0.17	-0.050			
0.1665	10655.75	3.9850	3.9850	-0.9257	25.13	-0.18	-0.050			
0.1674	10715.22	3.9840	3.9841	-0.9272	25.13	-0.18	-0.050			
0.1684	10774.49	3.9830	3.9830	-0.9276	25.13	-0.18	-0.050			
0.1693	10834.14	3.9820	3.9820	-0.9285	25.14	-0.17	-0.050			
0.1702	10893.55	3.9810	3.9810	-0.9274	25.14	-0.17	-0.050			
0.1711	10952.96	3.9800	3.9800	-0.9278	25.15	-0.16	-0.050			
0.1721	11012.39	3.9790	3.9790	-0.9278	25.16	-0.15	-0.050			
0.1730	11071.60	3.9780	3.9780	-0.9296	25.15	-0.16	-0.050			
0.1739	11131.22	3.9770	3.9770	-0.9307	25.15	-0.16	-0.050			
0.1749	11190.75	3.9760	3.9761	-0.9316	25.15	-0.16	-0.050			
0.1758	11249.89	3.9750	3.9749	-0.9323	25.14	-0.17	-0.050			
0.1767	11309.61	3.9740	3.9740	-0.9332	25.15	-0.16	-0.050			
0.1776	11369.43	3.9730	3.9730	-0.9347	25.15	-0.16	-0.050			
0.1786	11429.37	3.9720	3.9721	-0.9358	25.15	-0.16	-0.050			
0.1795	11489.14	3.9710	3.9709	-0.9363	25.15	-0.16	-0.050			
0.1805	11549.10	3.9700	3.9700	-0.9372	25.15	-0.16	-0.050	0.480	0.511	
0.1814	11609.07	3.9690	3.9689	-0.9382	25.15	-0.16	-0.050			
0.1823	11669.22	3.9680	3.9681	-0.9393	25.16	-0.15	-0.050			
0.1833	11729.16	3.9670	3.9670	-0.9396	25.17	-0.14	-0.050			
0.1842	11789.50	3.9660	3.9661	-0.9407	25.14	-0.17	-0.050			
0.1852	11850.24	3.9650	3.9650	-0.9419	25.14	-0.17	-0.050			
0.1861	11910.50	3.9640	3.9641	-0.9423	25.15	-0.16	-0.050			
0.1870	11970.98	3.9630	3.9630	-0.9438	25.16	-0.15	-0.050			
0.1880	12031.36	3.9620	3.9621	-0.9457	25.15	-0.16	-0.050			
0.1889	12092.10	3.9610	3.9609	-0.9464	25.15	-0.16	-0.050			
0.1899	12152.27	3.9600	3.9601	-0.9476	25.16	-0.15	-0.050			
0.1908	12212.83	3.9590	3.9590	-0.9477	25.15	-0.16	-0.050			
0.1918	12273.05	3.9580	3.9580	-0.9478	25.15	-0.16	-0.050			
0.1927	12333.91	3.9570	3.9570	-0.9488	25.15	-0.16	-0.050			
0.1937	12394.64	3.9560	3.9560	-0.9506	25.15	-0.16	-0.050			
0.1946	12455.53	3.9550	3.9549	-0.9512	25.15	-0.16	-0.050			
0.1956	12516.48	3.9540	3.9540	-0.9529	25.15	-0.16	-0.050			
0.1965	12577.68	3.9530	3.9531	-0.9538	25.15	-0.16	-0.050			
0.1975	12638.72	3.9520	3.9521	-0.9549	25.15	-0.16	-0.050			
0.1984	12699.95	3.9510	3.9510	-0.9562	25.15	-0.16	-0.050			
0.1994	12761.28	3.9500	3.9500	-0.9568	25.15	-0.16	-0.050			
0.2004	12822.50	3.9490	3.9490	-0.9581	25.15	-0.16	-0.050	0.389	0.608	
0.2013	12884.10	3.9480	3.9479	-0.9588	25.15	-0.16	-0.050			
0.2023	12945.36	3.9470	3.9471	-0.9595	25.15	-0.16	-0.050			
0.2032	13007.06	3.9460	3.9460	-0.9605	25.15	-0.16	-0.050			
0.2042	13068.50	3.9450	3.9450	-0.9614	25.14	-0.17	-0.050			
0.2052	13129.74	3.9440	3.9440	-0.9619	25.15	-0.16	-0.050			
0.2061	13191.18	3.9430	3.9430	-0.9629	25.14	-0.17	-0.050			
0.2071	13252.70	3.9420	3.9420	-0.9633	25.14	-0.17	-0.050			
0.2080	13314.71	3.9410	3.9411	-0.9643	25.15	-0.16	-0.050			
0.2090	13376.42	3.9400	3.9400	-0.9647	25.15	-0.16	-0.050			
0.2100	13438.49	3.9390	3.9389	-0.9658	25.15	-0.16	-0.050			
0.2109	13500.08	3.9380	3.9380	-0.9659	25.15	-0.16	-0.050			
0.2119	13562.11	3.9370	3.9369	-0.9668	25.15	-0.16	-0.050			
0.2129	13624.00	3.9360	3.9360	-0.9676	25.16	-0.15	-0.050			
0.2138	13685.76	3.9350	3.9350	-0.9690	25.14	-0.17	-0.050			
0.2148	13747.89	3.9340	3.9340	-0.9691	25.13	-0.18	-0.050			
0.2158	13810.10	3.9330	3.9331	-0.9695	25.14	-0.17	-0.050			
0.2168	13872.06	3.9320	3.9320	-0.9700	25.14	-0.17	-0.050			
0.2177	13934.14	3.9310	3.9309	-0.9708	25.13	-0.18	-0.050			
0.2187	13996.29	3.9300	3.9300	-0.9713	25.14	-0.17	-0.050			
0.2197	14058.37	3.9290	3.9290	-0.9720	25.15	-0.16	-0.050			
0.2206	14120.59	3.9280	3.9280	-0.9733	25.15	-0.16	-0.050	0.470	0.560	
0.2216	14182.79	3.9270	3.9270	-0.9737	25.15	-0.16	-0.050			
0.2226	14245.13	3.9260	3.9260	-0.9743	25.14	-0.17	-0.050			
0.2236	14307.36	3.9250	3.9251	-0.9758	25.14	-0.17	-0.050			
0.2245	14369.78	3.9240	3.9239	-0.9762	25.15	-0.16	-0.050			
0.2255	14432.20	3.9230	3.9230	-0.9770	25.15	-0.16	-0.050			
0.2265	14495.20	3.9220	3.9220	-0.9784	25.14	-0.17	-0.050			
0.2275	14557.85	3.9210	3.9210	-0.9786	25.15	-0.16	-0.050			
0.2284	14620.53	3.9200	3.9200	-0.9796	25.14	-0.17	-0.050			
0.2294	14683.32	3.9190	3.9190	-0.9803	25.13	-0.18	-0.050			
0.2304	14746.12	3.9180	3.9180	-0.9805	25.14	-0.17	-0.050			
0.2314	14808.81	3.9170	3.9170	-0.9814	25.15	-0.16	-0.050			
0.2324	14871.69	3.9160	3.9161	-0.9816	25.14	-0.17	-0.050			
0.2334	14934.51	3.9150	3.9151	-0.9821	25.13	-0.18	-0.050			
0.2343	14997.36	3.9140	3.9140	-0.9839	25.13	-0.18	-0.050			
0.2353	15060.32	3.9130	3.9131	-0.9847	25.14	-0.17	-0.050			
0.2363	15123.41	3.9120	3.9119	-0.9847	25.14	-0.17	-0.050			
0.2373	15186.53	3.9110	3.9110	-0.9846	25.13	-0.18	-0.050			
0.2383	15249.48	3.9100	3.9100	-0.9853	25.11	-0.20	-0.050			
0.2393	15312.65	3.9090	3.9090	-0.9853	25.11	-0.20	-0.050			
0.2402	15375.68	3.9080	3.9081	-0.9856	25.11	-0.20	-0.050	0.239	0.557	
0.2412	15438.64	3.9070	3.9070	-0.9865	25.10	-0.21	-0.050			
0.2422	15501.76	3.9060	3.9059	-0.9873	25.09	-0.22	-0.050			
0.2432	15565.10	3.9050	3.9049	-0.9868	25.09	-0.22	-0.050			
0.2442	15628.49	3.9040	3.9041	-0.9877	25.08	-0.23	-0.050			
0.2452	15691.68	3.9030	3.9030	-0.9883	25.07	-0.24	-0.050			
0.2462	15754.83	3.9020	3.9020	-0.9894	25.06	-0.25	-0.050			
0.2472	15818.13	3.9010	3.9009	-0.9899	25.06	-0.25	-0.050			
0.2481	15881.44	3.9000	3.9000	-0.9901	25.05	-0.26	-0.050			
0.2491	15944.72	3.8990	3.8990	-0.9914	25.07	-0.24	-0.050			
0.2501	16008.39	3.8980	3.8980	-0.9911	25.05	-0.26	-0.050			
0.2511	16071.93	3.8970	3.8971	-0.9909	25.04	-0.27	-0.050			
0.2521	16135.40	3.8960	3.8959	-0.9913	25.04	-0.27	-0.050			
0.2531	16198.64	3.8950	3.8949	-0.9915	25.03	-0.28	-0.050			
0.2541	16261.97	3.8940	3.8940	-0.9920	25.03	-0.28	-0.050			
0.2551	16325.37	3.8930	3.8930	-0.9935	25.02	-0.29	-0.050			
0.2561	16389.34	3.8920	3.8921	-0.9946	25.01	-0.30	-0.050			
0.2571	16453.08	3.8910	3.8910	-0.9948	25.01	-0.30	-0.050			
0.2581	16516.59	3.8900	3.8900	-0.9950	25.01	-0.30	-0.050			
0.2591	16580.38	3.8890	3.8891	-0.9958	25.01	-0.30	-0.050			
0.2601	16644.04	3.8880	3.8879	-0.9962	25.01	-0.30	-0.050	0.547	0.639	
0.2611	16707.61	3.8870	3.8870	-0.9968	25.01	-0.30	-0.050			
0.2621	16771.44	3.8860	3.8860	-0.9981	25.00	-0.31	-0.050			
0.2631	16835.53	3.8850	3.8850	-0.9991	25.01	-0.30	-0.050			
0.2641	16899.34	3.8840	3.8840	-0.9985	25.01	-0.30	-0.050			
0.2651	16963.29	3.8830	3.8831	-0.9994	25.01	-0.30	-0.050			
0.2660	17027.09	3.8820	3.8820	-0.9999	25.01	-0.30	-0.050			
0.2670	17091.17	3.8810	3.8809	-1.0012	25.00	-0.31	-0.050			
0.2681	17155.27	3.8800	3.8800	-1.0027	25.01	-0.30	-0.050			
0.2691	17219.40	3.8790	3.8790	-1.0038	24.99	-0.32	-0.050			
0.2701	17284.13	3.8780	3.8780	-1.0047	25.01	-0.30	-0.050			
0.2711	17348.39	3.8770	3.8771	-1.0053	25.00	-0.31	-0.050			
0.2721	17412.47	3.8760	3.8761	-1.0064	25.00	-0.31	-0.050			
0.2731	17476.88	3.8750	3.8750	-1.0066	24.99	-0.32	-0.050			
0.2741	17541.36	3.8740	3.8740	-1.0069	25.01	-0.30	-0.050			
0.2751	17605.79	3.8730	3.8730	-1.0079	25.03	-0.28	-0.050			
0.2761	17670.50	3.8720	3.8720	-1.0095	25.05	-0.26	-0.050			
0.2771	17735.11	3.8710	3.8710	-1.0100	25.05	-0.26	-0.050			
0.2781	17799.76	3.8700	3.8700	-1.0105	25.05	-0.26	-0.050			
0.2791	17864.51	3.8690	3.8691	-1.0113	25.05	-0.26	-0.050			
0.2801	17929.45	3.8680	3.8680	-1.0118	25.06	-0.25	-0.050	0.472	0.579	
0.2812	17994.18	3.8670	3.8670	-1.0119	25.07	-0.24	-0.050			
0.2822	18059.07	3.8660	3.8661	-1.0125	25.09	-0.22	-0.050			
0.2832	18124.13	3.8650	3.8649	-1.0136	25.10	-0.21	-0.050			
0.2842	18188.89	3.8640	3.8640	-1.0141	25.09	-0.22	-0.050			
0.2852	18253.74	3.8630	3.8629	-1.0143	25.09	-0.22	-0.050			
0.2862	18318.61	3.8620	3.8619	-1.0142	25.11	-0.20	-0.050			
0.2872	18383.20	3.8610	3.8611	-1.0148	25.10	-0.21	-0.050			
0.2883	18448.42	3.8600	3.8599	-1.0148	25.11	-0.20	-0.050			
0.2893	18513.44	3.8590	3.8590	-1.0156	25.12	-0.19	-0.050			
0.2903	18578.34	3.8580	3.8580	-1.0168	25.13	-0.18	-0.050			
0.2913	18643.39	3.8570	3.8569	-1.0164	25.13	-0.18	-0.050			
0.2923	18708.48	3.8560	3.8560	-1.0164	25.13	-0.18	-0.050			
0.2933	18773.58	3.8550	3.8550	-1.0176	25.12	-0.19	-0.050			
0.2944	18838.59	3.8540	3.8540	-1.0185	25.13	-0.18	-0.050			
0.2954	18903.70	3.8530	3.8530	-1.0188	25.13	-0.18	-0.050			
0.2964	18968.77	3.8520	3.8520	-1.0197	25.13	-0.18	-0.050			
0.2974	19034.03	3.8510	3.8510	-1.0209	25.13	-0.18	-0.050			
0.2984	19099.45	3.8500	3.8500	-1.0222	25.13	-0.18	-0.050			
0.2995	19165.00	3.8490	3.8490	-1.0224	25.13	-0.18	-0.050			
0.3005	19230.61	3.8480	3.8480	-1.0230	25.13	-0.18	-0.050			
0.3015	19296.18	3.8470	3.8469	-1.0240	25.14	-0.17	-0.050			
0.3025	19361.57	3.8460	3.8460	-1.0243	25.14	-0.17	-0.050			
0.3035	19427.16	3.8450	3.8450	-1.0247	25.14	-0.17	-0.050			
0.3046	19492.73	3.8440	3.8440	-1.0256	25.14	-0.17	-0.050			
0.3056	19558.42	3.8430	3.8430	-1.0269	25.14	-0.17	-0.050			
0.3066	19624.08	3.8420	3.8420	-1.0276	25.15	-0.16	-0.050			
0.3077	19690.37	3.8410	3.8410	-1.0268	25.16	-0.15	-0.050			
0.3087	19756.38	3.8400	3.8400	-1.0264	25.16	-0.15	-0.050			
0.3097	19822.10	3.8390	3.8390	-1.0267	25.16	-0.15	-0.050			
0.3107	19887.69	3.8380	3.8379	-1.0274	25.16	-0.15	-0.050			
0.3118	19953.41	3.8370	3.8370	-1.0279	25.15	-0.16	-0.050			
0.3128	20019.26	3.8360	3.8360	-1.0284	25.15	-0.16	-0.050			
0.3138	20084.82	3.8350	3.8350	-1.0282	25.15	-0.16	-0.050			
0.3149	20150.57	3.8340	3.8341	-1.0283	25.15	-0.16	-0.050			
0.3159	20216.45	3.8330	3.8331	-1.0290	25.15	-0.16	-0.050			
0.3169	20282.28	3.8320	3.8320	-1.0290	25.15	-0.16	-0.050			
0.3179	20347.95	3.8310	3.8310	-1.0295	25.15	-0.16	-0.050			
0.3190	20414.11	3.8300	3.8299	-1.0299	25.17	-0.14	-0.050			
0.3200	20480.17	3.8290	3.8289	-1.0304	25.17	-0.14	-0.050	0.398	0.524	
0.3210	20546.18	3.8280	3.8280	-1.0309	25.16	-0.15	-0.050			
0.3221	20612.00	3.8270	3.8270	-1.0300	25.17	-0.14	-0.050			
0.3231	20677.99	3.8260	3.8259	-1.0301	25.17	-0.14	-0.050			
0.3241	20744.02	3.8250	3.8251	-1.0300	25.16	-0.15	-0.050			
0.3252	20810.03	3.8240	3.8240	-1.0296	25.17	-0.14	-0.050			
0.3262	20876.04	3.8230	3.8230	-1.0300	25.17	-0.14	-0.050			
0.3272	20942.03	3.8220	3.8221	-1.0301	25.19	-0.12	-0.050			
0.3283	21008.55	3.8210	3.8210	-1.0303	25.17	-0.14	-0.050			
0.3293	21074.47	3.8200	3.8200	-1.0296	25.18	-0.13	-0.050			
0.3303	21139.62	3.8190	3.8190	-1.0284	25.18	-0.13	-0.050			
0.3313	21205.40	3.8180	3.8180	-1.0277	25.18	-0.13	-0.050			
0.3324	21271.20	3.8170	3.8170	-1.0275	25.17	-0.14	-0.050			
0.3334	21336.98	3.8160	3.8160	-1.0272	25.18	-0.13	-0.050			
0.3344	21402.68	3.8150	3.8149	-1.0269	25.19	-0.12	-0.050			
0.3354	21468.43	3.8140	3.8140	-1.0266	25.19	-0.12	-0.050			
0.3365	21534.41	3.8130	3.8130	-1.0248	25.19	-0.12	-0.050			
0.3375	21600.00	3.8120	3.8120	-1.0244	25.19	-0.12	-0.050			
0.3385	21665.94	3.8110	3.8110	-1.0226	25.19	-0.12	-0.050			
0.3396	21731.44	3.8100	3.8100	-1.0217	25.19	-0.12	-0.050			
0.3406	21796.99	3.8090	3.8090	-1.0197	25.19	-0.12	-0.050	0.525	0.611	
0.3416	21862.45	3.8080	3.8080	-1.0178	25.20	-0.11	-0.050			
0.3426	21927.81	3.8070	3.8070	-1.0159	25.21	-0.10	-0.050			
0.3436	21992.90	3.8060	3.8060	-1.0133	25.20	-0.11	-0.050			
0.3447	22057.88	3.8050	3.8050	-1.0107	25.20	-0.11	-0.050			
0.3457	22122.82	3.8040	3.8040	-1.0068	25.20	-0.11	-0.050			
0.3467	22187.16	3.8030	3.8029	-1.0035	25.19	-0.12	-0.050			
0.3477	22251.53	3.8020	3.8020	-0.9999	25.19	-0.12	-0.050			
0.3487	22315.52	3.8010	3.8010	-0.9965	25.19	-0.12	-0.050			
0.3497	22379.09	3.8000	3.8001	-0.9919	25.19	-0.12	-0.050			
0.3507	22442.51	3.7990	3.7990	-0.9874	25.18	-0.13	-0.050			
0.3517	22505.79	3.7980	3.7981	-0.9838	25.20	-0.11	-0.050			
0.3526	22568.74	3.7970	3.7969	-0.9788	25.19	-0.12	-0.050			
0.3536	22631.42	3.7960	3.7960	-0.9736	25.19	-0.12	-0.050			
0.3546	22693.78	3.7950	3.7950	-0.9685	25.18	-0.13	-0.050			
0.3556	22755.64	3.7940	3.7939	-0.9636	25.17	-0.14	-0.050			
0.3565	22817.60	3.7930	3.7931	-0.9584	25.19	-0.12	-0.050			
0.3575	22878.81	3.7920	3.7920	-0.9525	25.18	-0.13	-0.050			
0.3584	22939.64	3.7910	3.7911	-0.9469	25.17	-0.14	-0.050			
0.3594	22999.99	3.7900	3.7900	-0.9402	25.17	-0.14	-0.050			
0.3603	23060.24	3.7890	3.7890	-0.9347	25.17	-0.14	-0.050	0.253	0.569	
0.3612	23119.90	3.7880	3.7880	-0.9283	25.17	-0.14	-0.050			
0.3622	23179.58	3.7870	3.7870	-0.9206	25.18	-0.13	-0.050			
0.3631	23238.44	3.7860	3.7860	-0.9138	25.17	-0.14	-0.050			
0.3640	23296.81	3.7850	3.7850	-0.9061	25.19	-0.12	-0.050			
0.3649	23354.98	3.7840	3.7840	-0.8987	25.17	-0.14	-0.050			
0.3658	23412.20	3.7830	3.7829	-0.8899	25.17	-0.14	-0.050			
0.3667	23469.06	3.7820	3.7821	-0.8822	25.19	-0.12	-0.050			
0.3676	23525.27	3.7810	3.7810	-0.8738	25.18	-0.13	-0.050			
0.3685	23581.12	3.7800	3.7800	-0.8659	25.17	-0.14	-0.050			
0.3693	23636.23	3.7790	3.7791	-0.8577	25.17	-0.14	-0.050			
0.3702	23691.08	3.7780	3.7780	-0.8504	25.18	-0.13	-0.050			
0.3710	23745.13	3.7770	3.7770	-0.8417	25.18	-0.13	-0.050			
0.3719	23798.90	3.7760	3.7760	-0.8330	25.18	-0.13	-0.050			
0.3727	23851.78	3.7750	3.7749	-0.8239	25.17	-0.14	-0.050			
0.3735	23904.28	3.7740	3.7740	-0.8156	25.18	-0.13	-0.050			
0.3743	23955.88	3.7730	3.7730	-0.8076	25.19	-0.12	-0.050			
0.3751	24007.07	3.7720	3.7720	-0.7993	25.19	-0.12	-0.050			
0.3759	24057.83	3.7710	3.7710	-0.7912	25.18	-0.13	-0.050			
0.3767	24108.22	3.7700	3.7700	-0.7833	25.17	-0.14	-0.050			
0.3775	24158.03	3.7690	3.7690	-0.7753	25.17	-0.14	-0.050			
0.3782	24207.45	3.7680	3.7680	-0.7677	25.17	-0.14	-0.050			
0.3790	24256.43	3.7670	3.7670	-0.7609	25.17	-0.14	-0.050			
0.3798	24304.96	3.7660	3.7660	-0.7532	25.19	-0.12	-0.050			
0.3805	24352.53	3.7650	3.7650	-0.7458	25.19	-0.12	-0.050	0.291	0.602	
0.3812	24399.82	3.7640	3.7640	-0.7392	25.18	-0.13	-0.050			
0.3820	24446.74	3.7630	3.7630	-0.7325	25.17	-0.14	-0.050			
0.3827	24493.15	3.7620	3.7620	-0.7263	25.17	-0.14	-0.050			
0.3834	24538.99	3.7610	3.7610	-0.7198	25.18	-0.13	-0.050			
0.3841	24584.59	3.7600	3.7600	-0.7144	25.18	-0.13	-0.050			
0.3848	24629.80	3.7590	3.7590	-0.7092	25.18	-0.13	-0.050			
0.3855	24674.67	3.7580	3.7580	-0.7045	25.19	-0.12	-0.050			
0.3862	24719.31	3.7570	3.7570	-0.7004	25.19	-0.12	-0.050			
0.3869	24763.93	3.7560	3.7559	-0.6961	25.18	-0.13	-0.050			
0.3876	24808.22	3.7550	3.7549	-0.6920	25.18	-0.13	-0.050			
0.3883	24851.83	3.7540	3.7540	-0.6890	25.19	-0.12	-0.050			
0.3890	24895.30	3.7530	3.7530	-0.6851	25.19	-0.12	-0.050			
0.3897	24938.89	3.7520	3.7520	-0.6834	25.17	-0.14	-0.050			
0.3903	24982.20	3.7510	3.7510	-0.6817	25.17	-0.14	-0.050			
0.3910	25025.56	3.7500	3.7501	-0.6806	25.17	-0.14	-0.050			
0.3917	25068.81	3.7490	3.7490	-0.6797	25.17	-0.14	-0.050			
0.3924	25111.88	3.7480	3.7481	-0.6794	25.17	-0.14	-0.050			
0.3930	25154.97	3.7470	3.7470	-0.6793	25.17	-0.14	-0.050			
0.3937	25197.80	3.7460	3.7460	-0.6807	25.18	-0.13	-0.050			
0.3944	25240.70	3.7450	3.7450	-0.6813	25.18	-0.13	-0.050			
0.3951	25283.85	3.7440	3.7439	-0.6833	25.17	-0.14	-0.050			
0.3957	25327.05	3.7430	3.7430	-0.6860	25.17	-0.14	-0.050			
0.3964	25370.62	3.7420	3.7420	-0.6897	25.17	-0.14	-0.050			
0.3971	25414.02	3.7410	3.7410	-0.6949	25.16	-0.15	-0.050			
0.3978	25458.18	3.7400	3.7400	-0.7000	25.16	-0.15	-0.050			
0.3985	25502.69	3.7390	3.7391	-0.7056	25.17	-0.14	-0.050			
0.3992	25547.47	3.7380	3.7381	-0.7126	25.16	-0.15	-0.050			
0.3999	25592.79	3.7370	3.7370	-0.7202	25.17	-0.14	-0.050			
0.4006	25638.69	3.7360	3.7361	-0.7286	25.15	-0.16	-0.050			
0.4013	25684.92	3.7350	3.7350	-0.7387	25.15	-0.16	-0.050			
0.4021	25731.43	3.7340	3.7340	-0.7476	25.15	-0.16	-0.050			
0.4028	25779.17	3.7330	3.7330	-0.7583	25.14	-0.17	-0.050			
0.4036	25827.41	3.7320	3.7320	-0.7706	25.14	-0.17	-0.050			
0.4043	25876.70	3.7310	3.7311	-0.7823	25.14	-0.17	-0.050			
0.4051	25926.38	3.7300	3.7300	-0.7965	25.14	-0.17	-0.050			
0.4059	25977.48	3.7290	3.7290	-0.8103	25.13	-0.18	-0.050			
0.4067	26029.24	3.7280	3.7281	-0.8253	25.13	-0.18	-0.050			
0.4075	26082.07	3.7270	3.7269	-0.8405	25.13	-0.18	-0.050			
0.4084	26135.68	3.7260	3.7260	-0.8563	25.13	-0.18	-0.050			
0.4092	26190.35	3.7250	3.7251	-0.8742	25.12	-0.19	-0.050			
0.4101	26246.22	3.7240	3.7239	-0.8928	25.11	-0.20	-0.050			
0.4110	26303.43	3.7230	3.7231	-0.9117	25.11	-0.20	-0.050			
0.4119	26362.09	3.7220	3.7220	-0.9306	25.12	-0.19	-0.050			
0.4128	26421.80	3.7210	3.7210	-0.9498	25.11	-0.20	-0.050			
0.4138	26483.09	3.7200	3.7199	-0.9709	25.10	-0.21	-0.050			
0.4148	26545.77	3.7190	3.7190	-0.9909	25.10	-0.21	-0.050			
0.4158	26609.56	3.7180	3.7179	-1.0113	25.09	-0.22	-0.050			
0.4168	26674.78	3.7170	3.7170	-1.0328	25.09	-0.22	-0.050			
0.4178	26741.27	3.7160	3.7160	-1.0540	25.08	-0.23	-0.050			
0.4189	26809.18	3.7150	3.7150	-1.0757	25.09	-0.22	-0.050			
0.4200	26878.91	3.7140	3.7140	-1.0974	25.09	-0.22	-0.050	0.535	0.552	
0.4211	26949.94	3.7130	3.7131	-1.1186	25.07	-0.24	-0.050			
0.4222	27022.30	3.7120	3.7120	-1.1409	25.07	-0.24	-0.050			
0.4234	27096.11	3.7110	3.7110	-1.1635	25.06	-0.25	-0.050			
0.4246	27171.23	3.7100	3.7100	-1.1846	25.06	-0.25	-0.050			
0.4258	27248.00	3.7090	3.7089	-1.2062	25.05	-0.26	-0.050			
0.4270	27326.13	3.7080	3.7080	-1.2275	25.04	-0.27	-0.050			
0.4282	27405.26	3.7070	3.7069	-1.2491	25.05	-0.26	-0.050			
0.4295	27485.72	3.7060	3.7060	-1.2697	25.04	-0.27	-0.050			
0.4308	27568.02	3.7050	3.7050	-1.2898	25.03	-0.28	-0.050			
0.4321	27651.51	3.7040	3.7040	-1.3103	25.03	-0.28	-0.050			
0.4334	27736.63	3.7030	3.7030	-1.3301	25.01	-0.30	-0.050			
0.4347	27822.51	3.7020	3.7020	-1.3498	25.02	-0.29	-0.050			
0.4361	27909.55	3.7010	3.7011	-1.3702	25.01	-0.30	-0.050			
0.4375	27998.09	3.7000	3.7000	-1.3895	25.01	-0.30	-0.050			
0.4389	28087.99	3.6990	3.6990	-1.4086	24.99	-0.32	-0.050			
0.4403	28178.60	3.6980	3.6980	-1.4274	24.99	-0.32	-0.050	0.464	0.580	
0.4417	28270.64	3.6970	3.6971	-1.4460	24.99	-0.32	-0.050			
0.4432	28363.96	3.6960	3.6960	-1.4645	24.99	-0.32	-0.050			
0.4447	28458.37	3.6950	3.6950	-1.4830	24.99	-0.32	-0.050			
0.4462	28554.03	3.6940	3.6940	-1.5018	24.99	-0.32	-0.050			
0.4477	28650.84	3.6930	3.6929	-1.5191	24.97	-0.34	-0.050			
0.4492	28748.49	3.6920	3.6919	-1.5366	24.97	-0.34	-0.050			
0.4507	28847.26	3.6910	3.6910	-1.5554	24.97	-0.34	-0.050			
0.4523	28947.32	3.6900	3.6901	-1.5740	24.95	-0.36	-0.050			
0.4539	29048.40	3.6890	3.6890	-1.5930	24.95	-0.36	-0.050			
0.4555	29150.64	3.6880	3.6880	-1.6120	24.95	-0.36	-0.050			
0.4571	29254.38	3.6870	3.6870	-1.6304	24.95	-0.36	-0.050			
0.4587	29359.31	3.6860	3.6860	-1.6502	24.92	-0.39	-0.050			
0.4604	29465.95	3.6850	3.6849	-1.6688	24.90	-0.41	-0.050			
0.4621	29572.90	3.6840	3.6840	-1.6879	24.87	-0.44	-0.050			
0.4638	29681.51	3.6830	3.6829	-1.7074	24.84	-0.47	-0.050			
0.4655	29790.63	3.6820	3.6820	-1.7275	24.85	-0.46	-0.050			
0.4672	29901.29	3.6810	3.6811	-1.7493	24.80	-0.51	-0.050			
0.4690	30013.47	3.6800	3.6800	-1.7717	24.80	-0.51	-0.050			
0.4707	30126.94	3.6790	3.6790	-1.7946	24.78	-0.53	-0.050			
0.4725	30242.05	3.6780	3.6779	-1.8169	24.77	-0.54	-0.050			
0.4744	30358.89	3.6770	3.6769	-1.8404	24.77	-0.54	-0.050			
0.4762	30476.59	3.6760	3.6760	-1.8656	24.77	-0.54	-0.050			
0.4781	30596.45	3.6750	3.6750	-1.8901	24.77	-0.54	-0.050			
0.4800	30718.08	3.6740	3.6740	-1.9153	24.77	-0.54	-0.050			
0.4819	30841.47	3.6730	3.6728	-1.9396	24.77	-0.54	-0.050			
0.4838	30966.23	3.6720	3.6720	-1.9645	24.78	-0.53	-0.050			
0.4858	31092.71	3.6710	3.6710	-1.9900	24.82	-0.49	-0.050			
0.4878	31221.18	3.6700	3.6700	-2.0152	24.82	-0.49	-0.050			
0.4899	31351.06	3.6690	3.6690	-2.0411	24.86	-0.45	-0.050			
0.4919	31482.86	3.6680	3.6679	-2.0675	24.86	-0.45	-0.050			
0.4940	31616.04	3.6670	3.6670	-2.0943	24.87	-0.44	-0.050			
0.4961	31750.60	3.6660	3.6660	-2.1209	24.88	-0.43	-0.050			
0.4982	31887.08	3.6650	3.6650	-2.1482	24.88	-0.43	-0.050			
0.5004	32025.01	3.6640	3.6640	-2.1737	24.88	-0.43	-0.050	0.549	0.656	
0.5026	32164.12	3.6630	3.6630	-2.2018	24.88	-0.43	-0.050			
0.5048	32305.33	3.6620	3.6621	-2.2287	24.88	-0.43	-0.050			
0.5070	32448.30	3.6610	3.6610	-2.2577	24.89	-0.42	-0.050			
0.5093	32592.92	3.6600	3.6600	-2.2891	24.90	-0.41	-0.050			
0.5116	32739.86	3.6590	3.6591	-2.3192	24.90	-0.41	-0.050			
0.5139	32888.72	3.6580	3.6580	-2.3500	24.90	-0.41	-0.050			
0.5162	33039.97	3.6570	3.6569	-2.3802	24.90	-0.41	-0.050			
0.5186	33192.74	3.6560	3.6561	-2.4136	24.91	-0.40	-0.050			
0.5211	33348.24	3.6550	3.6551	-2.4468	24.90	-0.41	-0.050	0.387	0.550	
0.5235	33505.73	3.6540	3.6540	-2.4800	24.90	-0.41	-0.050			
0.5260	33665.53	3.6530	3.6531	-2.5139	24.90	-0.41	-0.050			
0.5286	33827.25	3.6520	3.6520	-2.5478	24.90	-0.41	-0.050			
0.5311	33991.56	3.6510	3.6510	-2.5810	24.90	-0.41	-0.050			
0.5337	34157.77	3.6500	3.6500	-2.6157	24.90	-0.41	-0.050			
0.5363	34325.74	3.6490	3.6490	-2.6509	24.89	-0.42	-0.050			
0.5390	34496.30	3.6480	3.6480	-2.6862	24.90	-0.41	-0.050			
0.5417	34669.70	3.6470	3.6470	-2.7207	24.90	-0.41	-0.050	0.553	0.657	
0.5444	34844.79	3.6460	3.6460	-2.7557	24.90	-0.41	-0.050			
0.5472	35022.04	3.6450	3.6450	-2.7914	24.90	-0.41	-0.050			
0.5500	35201.06	3.6440	3.6440	-2.8280	24.91	-0.40	-0.050			
0.5529	35382.92	3.6430	3.6431	-2.8671	24.92	-0.39	-0.050			
0.5557	35567.16	3.6420	3.6420	-2.9033	24.90	-0.41	-0.050			
0.5587	35754.65	3.6410	3.6410	-2.9397	24.90	-0.41	-0.050			
0.5616	35944.40	3.6400	3.6401	-2.9759	24.91	-0.40	-0.050	0.458	0.592	
0.5646	36136.23	3.6390	3.6389	-3.0134	24.90	-0.41	-0.050			
0.5677	36329.96	3.6380	3.6379	-3.0486	24.90	-0.41	-0.050			
0.5707	36526.74	3.6370	3.6370	-3.0859	24.90	-0.41	-0.050			
0.5738	36725.40	3.6360	3.6360	-3.1218	24.90	-0.41	-0.050			
0.5770	36926.55	3.6350	3.6350	-3.1555	24.90	-0.41	-0.050			
0.5802	37129.72	3.6340	3.6340	-3.1917	24.90	-0.41	-0.050	0.336	0.593	
0.5834	37335.52	3.6330	3.6329	-3.2230	24.89	-0.42	-0.050			
0.5866	37543.43	3.6320	3.6320	-3.2567	24.90	-0.41	-0.050			
0.5899	37753.25	3.6310	3.6310	-3.2906	24.90	-0.41	-0.050			
0.5932	37965.05	3.6300	3.6300	-3.3175	24.89	-0.42	-0.050			
0.5965	38178.75	3.6290	3.6290	-3.3435	24.90	-0.41	-0.050			
0.5999	38394.36	3.6280	3.6280	-3.3686	24.90	-0.41	-0.050			
0.6033	38613.19	3.6270	3.6270	-3.3906	24.90	-0.41	-0.050			
0.6068	38832.45	3.6260	3.6260	-3.4098	24.92	-0.39	-0.050			
0.6102	39052.25	3.6250	3.6250	-3.4215	24.91	-0.40	-0.050			
0.6136	39272.92	3.6240	3.6240	-3.4337	24.91	-0.40	-0.050			
0.6171	39494.97	3.6230	3.6230	-3.4395	24.92	-0.39	-0.050			
0.6206	39716.47	3.6220	3.6220	-3.4391	24.92	-0.39	-0.050			
0.6240	39937.97	3.6210	3.6211	-3.4393	24.93	-0.38	-0.050			
0.6275	40158.96	3.6200	3.6199	-3.4305	24.93	-0.38	-0.050			
0.6309	40380.36	3.6190	3.6189	-3.4194	24.93	-0.38	-0.050			
0.6344	40599.63	3.6180	3.6179	-3.4009	24.93	-0.38	-0.050			
0.6378	40819.80	3.6170	3.6170	-3.3746	24.93	-0.38	-0.050			
0.6412	41037.69	3.6160	3.6160	-3.3447	24.92	-0.39	-0.050	0.372	0.567	
0.6446	41253.27	3.6150	3.6150	-3.3048	24.93	-0.38	-0.050			
0.6479	41466.65	3.6140	3.6141	-3.2619	24.93	-0.38	-0.050			
0.6512	41676.02	3.6130	3.6129	-3.2135	24.93	-0.38	-0.050			
0.6544	41882.28	3.6120	3.6120	-3.1550	24.93	-0.38	-0.050			
0.6576	42085.24	3.6110	3.6110	-3.0936	24.92	-0.39	-0.050			
0.6607	42282.61	3.6100	3.6100	-3.0259	24.93	-0.38	-0.050	0.459	0.542	
0.6637	42475.68	3.6090	3.6089	-2.9554	24.89	-0.42	-0.050			
0.6666	42663.34	3.6080	3.6081	-2.8833	24.87	-0.44	-0.050			
0.6694	42844.58	3.6070	3.6070	-2.8068	24.84	-0.47	-0.050			
0.6722	43020.45	3.6060	3.6060	-2.7331	24.83	-0.48	-0.050			
0.6749	43191.00	3.6050	3.6050	-2.6639	24.82	-0.49	-0.050			
0.6774	43355.99	3.6040	3.6041	-2.5964	24.82	-0.49	-0.050			
0.6799	43516.42	3.6030	3.6030	-2.5329	24.82	-0.49	-0.050	0.497	0.683	
0.6824	43672.49	3.6020	3.6021	-2.4767	24.81	-0.50	-0.050			
0.6848	43829.27	3.6010	3.6010	-2.4226	24.82	-0.49	-0.050			
0.6872	43978.82	3.6000	3.6000	-2.3734	24.85	-0.46	-0.050			
0.6894	44123.99	3.5990	3.5990	-2.3295	24.85	-0.46	-0.050			
0.6917	44267.84	3.5980	3.5980	-2.2905	24.85	-0.46	-0.050			
0.6939	44408.56	3.5970	3.5969	-2.2539	24.88	-0.43	-0.050			
0.6961	44548.52	3.5960	3.5959	-2.2255	24.89	-0.42	-0.050			
0.6982	44687.08	3.5950	3.5950	-2.1978	24.94	-0.37	-0.050			
0.7004	44825.54	3.5940	3.5940	-2.1754	24.99	-0.32	-0.050			
0.7025	44963.09	3.5930	3.5930	-2.1554	25.04	-0.27	-0.050			
0.7047	45099.80	3.5920	3.5920	-2.1365	25.07	-0.24	-0.050			
0.7068	45236.49	3.5910	3.5910	-2.1188	25.09	-0.22	-0.050			
0.7089	45372.73	3.5900	3.5899	-2.1013	25.11	-0.20	-0.050			
0.7111	45507.56	3.5890	3.5890	-2.0827	25.14	-0.17	-0.050			
0.7131	45641.56	3.5880	3.5880	-2.0621	25.15	-0.16	-0.050			
0.7152	45774.28	3.5870	3.5870	-2.0406	25.17	-0.14	-0.050			
0.7173	45905.16	3.5860	3.5860	-2.0165	25.17	-0.14	-0.050			
0.7193	46034.18	3.5850	3.5850	-1.9923	25.18	-0.13	-0.050			
0.7213	46161.62	3.5840	3.5841	-1.9663	25.21	-0.10	-0.050			
0.7232	46287.12	3.5830	3.5830	-1.9406	25.21	-0.10	-0.050			
0.7252	46410.65	3.5820	3.5820	-1.9138	25.21	-0.10	-0.050			
0.7271	46532.13	3.5810	3.5809	-1.8871	25.23	-0.08	-0.050			
0.7289	46652.28	3.5800	3.5801	-1.8606	25.22	-0.09	-0.050			
0.7308	46770.23	3.5790	3.5791	-1.8334	25.23	-0.08	-0.050			
0.7326	46886.01	3.5780	3.5779	-1.8085	25.23	-0.08	-0.050			
0.7344	47000.08	3.5770	3.5770	-1.7832	25.23	-0.08	-0.050			
0.7361	47112.62	3.5760	3.5760	-1.7596	25.23	-0.08	-0.050			
0.7379	47223.03	3.5750	3.5750	-1.7383	25.23	-0.08	-0.050			
0.7396	47332.46	3.5740	3.5740	-1.7170	25.24	-0.07	-0.050			
0.7412	47439.86	3.5730	3.5731	-1.6994	25.23	-0.08	-0.050			
0.7429	47546.52	3.5720	3.5720	-1.6854	25.23	-0.08	-0.050			
0.7446	47651.85	3.5710	3.5710	-1.6732	25.25	-0.06	-0.050			
0.7462	47756.18	3.5700	3.5699	-1.6644	25.24	-0.07	-0.050			
0.7478	47860.06	3.5690	3.5690	-1.6595	25.26	-0.05	-0.050			
0.7494	47963.52	3.5680	3.5680	-1.6578	25.25	-0.06	-0.050			
0.7510	48066.77	3.5670	3.5671	-1.6585	25.25	-0.06	-0.050			
0.7527	48170.74	3.5660	3.5660	-1.6608	25.26	-0.05	-0.050			
0.7543	48275.64	3.5650	3.5650	-1.6671	25.25	-0.06	-0.050			
0.7559	48380.72	3.5640	3.5640	-1.6748	25.26	-0.05	-0.050			
0.7576	48486.99	3.5630	3.5629	-1.6832	25.25	-0.06	-0.050			
0.7593	48594.46	3.5620	3.5619	-1.6935	25.26	-0.05	-0.050			
0.7610	48703.58	3.5610	3.5610	-1.7040	25.27	-0.04	-0.050	0.205	0.589	
0.7627	48814.79	3.5600	3.5600	-1.7114	25.27	-0.04	-0.050			
0.7645	48926.05	3.5590	3.5590	-1.7169	25.27	-0.04	-0.050			
0.7662	49038.01	3.5580	3.5580	-1.7225	25.26	-0.05	-0.050			
0.7680	49151.56	3.5570	3.5570	-1.7242	25.27	-0.04	-0.050			
0.7698	49264.08	3.5560	3.5560	-1.7221	25.25	-0.06	-0.050			
0.7715	49377.90	3.5550	3.5550	-1.7167	25.27	-0.04	-0.050			
0.7733	49490.02	3.5540	3.5540	-1.7078	25.26	-0.05	-0.050			
0.7750	49601.90	3.5530	3.5530	-1.6946	25.27	-0.04	-0.050			
0.7768	49713.29	3.5520	3.5521	-1.6762	25.28	-0.03	-0.050			
0.7785	49821.60	3.5510	3.5510	-1.6535	25.27	-0.04	-0.050			
0.7801	49929.21	3.5500	3.5500	-1.6301	25.28	-0.03	-0.050	0.534	0.684	
0.7818	50034.54	3.5490	3.5491	-1.6019	25.27	-0.04	-0.050			
0.7834	50137.58	3.5480	3.5480	-1.5712	25.28	-0.03	-0.050			
0.7850	50238.51	3.5470	3.5469	-1.5393	25.29	-0.02	-0.050			
0.7865	50336.64	3.5460	3.5460	-1.5050	25.27	-0.04	-0.050			
0.7880	50432.62	3.5450	3.5450	-1.4694	25.29	-0.02	-0.050			
0.7895	50525.72	3.5440	3.5440	-1.4319	25.28	-0.03	-0.050			
0.7909	50616.70	3.5430	3.5430	-1.3946	25.27	-0.04	-0.050			
0.7923	50704.99	3.5420	3.5420	-1.3575	25.27	-0.04	-0.050			
0.7936	50790.93	3.5410	3.5410	-1.3210	25.29	-0.02	-0.050			
0.7949	50874.23	3.5400	3.5400	-1.2837	25.29	-0.02	-0.050			
0.7962	50954.49	3.5390	3.5389	-1.2472	25.29	-0.02	-0.050			
0.7974	51032.76	3.5380	3.5380	-1.2116	25.27	-0.04	-0.050			
0.7986	51107.80	3.5370	3.5370	-1.1782	25.29	-0.02	-0.050			
0.7997	51181.20	3.5360	3.5360	-1.1456	25.27	-0.04	-0.050			
0.8008	51251.32	3.5350	3.5350	-1.1161	25.28	-0.03	-0.050	0.420	0.607	
0.8019	51320.56	3.5340	3.5340	-1.0878	25.28	-0.03	-0.050			
0.8029	51387.29	3.5330	3.5330	-1.0652	25.27	-0.04	-0.050			
0.8039	51451.47	3.5320	3.5321	-1.0435	25.27	-0.04	-0.050			
0.8049	51515.36	3.5310	3.5310	-1.0238	25.26	-0.05	-0.050			
0.8059	51577.39	3.5300	3.5300	-1.0101	25.26	-0.05	-0.050			
0.8069	51639.35	3.5290	3.5289	-0.9972	25.27	-0.04	-0.050			
0.8078	51699.83	3.5280	3.5280	-0.9890	25.27	-0.04	-0.050			
0.8087	51759.88	3.5270	3.5270	-0.9841	25.27	-0.04	-0.050			
0.8097	51821.37	3.5260	3.5260	-0.9829	25.27	-0.04	-0.050			
0.8106	51881.50	3.5250	3.5250	-0.9844	25.27	-0.04	-0.050			
0.8116	51942.70	3.5240	3.5239	-0.9884	25.26	-0.05	-0.050			
0.8126	52004.82	3.5230	3.5229	-0.9924	25.25	-0.06	-0.050			
0.8136	52068.44	3.5220	3.5220	-0.9981	25.26	-0.05	-0.050			
0.8146	52132.38	3.5210	3.5210	-1.0035	25.25	-0.06	-0.050			
0.8156	52197.67	3.5200	3.5200	-1.0085	25.25	-0.06	-0.050			
0.8166	52263.38	3.5190	3.5189	-1.0137	25.26	-0.05	-0.050			
0.8177	52330.06	3.5180	3.5180	-1.0153	25.27	-0.04	-0.050			
0.8187	52396.65	3.5170	3.5169	-1.0183	25.26	-0.05	-0.050			
0.8198	52464.07	3.5160	3.5160	-1.0150	25.25	-0.06	-0.050			
0.8208	52531.31	3.5150	3.5150	-1.0134	25.25	-0.06	-0.050	0.467	0.641	
0.8218	52597.59	3.5140	3.5140	-1.0077	25.25	-0.06	-0.050			
0.8229	52664.50	3.5130	3.5130	-0.9988	25.25	-0.06	-0.050			
0.8239	52730.10	3.5120	3.5121	-0.9896	25.27	-0.04	-0.050			
0.8249	52793.91	3.5110	3.5110	-0.9759	25.27	-0.04	-0.050			
0.8259	52857.80	3.5100	3.5100	-0.9616	25.25	-0.06	-0.050			
0.8269	52919.49	3.5090	3.5089	-0.9449	25.27	-0.04	-0.050			
0.8278	52980.09	3.5080	3.5080	-0.9282	25.26	-0.05	-0.050			
0.8287	53038.78	3.5070	3.5070	-0.9102	25.25	-0.06	-0.050			
0.8296	53095.54	3.5060	3.5061	-0.8945	25.25	-0.06	-0.050			
0.8305	53151.43	3.5050	3.5050	-0.8775	25.26	-0.05	-0.050			
0.8313	53206.19	3.5040	3.5040	-0.8623	25.25	-0.06	-0.050			
0.8322	53259.83	3.5030	3.5030	-0.8489	25.25	-0.06	-0.050			
0.8330	53311.72	3.5020	3.5020	-0.8383	25.25	-0.06	-0.050			
0.8338	53363.87	3.5010	3.5010	-0.8290	25.25	-0.06	-0.050			
0.8346	53413.76	3.5000	3.5001	-0.8229	25.25	-0.06	-0.050			
0.8354	53464.62	3.4990	3.4990	-0.8193	25.25	-0.06	-0.050			
0.8361	53513.36	3.4980	3.4980	-0.8199	25.25	-0.06	-0.050			
0.8369	53562.39	3.4970	3.4970	-0.8281	25.25	-0.06	-0.050			
0.8377	53610.63	3.4960	3.4961	-0.8386	25.25	-0.06	-0.050			
0.8384	53660.23	3.4950	3.4951	-0.8589	25.25	-0.06	-0.050			
0.8392	53708.38	3.4940	3.4942	-0.8927	25.24	-0.07	-0.050			
0.8399	53755.53	3.4930	3.4932	-0.9295	25.23	-0.08	-0.050			
0.8407	53806.94	3.4920	3.4922	-0.9831	25.23	-0.08	-0.050			
0.8415	53858.94	3.4910	3.4914	-1.0547	25.24	-0.07	-0.050			
0.8424	53912.11	3.4900	3.4903	-1.1244	25.25	-0.06	-0.050			
0.8434	53975.42	3.4890	3.4893	-1.2188	25.25	-0.06	-0.050			
0.8445	54047.09	3.4880	3.4881	-1.3248	25.23	-0.08	-0.050			
0.8457	54127.52	3.4870	3.4870	-1.4416	25.23	-0.08	-0.050			
0.8471	54217.07	3.4860	3.4859	-1.5488	25.24	-0.07	-0.050			
0.8488	54320.87	3.4850	3.4848	-1.6753	25.23	-0.08	-0.050			
0.8506	54436.33	3.4840	3.4837	-1.7996	25.23	-0.08	-0.050			
0.8525	54560.39	3.4830	3.4827	-1.9223	25.23	-0.08	-0.050			
0.8546	54694.52	3.4820	3.4818	-2.0407	25.23	-0.08	-0.050			
0.8568	54836.57	3.4810	3.4808	-2.1504	25.22	-0.09	-0.050			
0.8592	54988.10	3.4800	3.4800	-2.2587	25.23	-0.08	-0.050			
0.8616	55145.00	3.4790	3.4790	-2.3429	25.21	-0.10	-0.050	0.545	0.662	
0.8642	55310.15	3.4780	3.4780	-2.4228	25.22	-0.09	-0.050			
0.8669	55479.44	3.4770	3.4770	-2.4827	25.21	-0.10	-0.050			
0.8695	55650.77	3.4760	3.4761	-2.5237	25.21	-0.10	-0.050			
0.8722	55821.47	3.4750	3.4751	-2.5471	25.22	-0.09	-0.050			
0.8749	55995.14	3.4740	3.4740	-2.5548	25.21	-0.10	-0.050			
0.8776	56165.93	3.4730	3.4730	-2.5479	25.22	-0.09	-0.050			
0.8802	56334.58	3.4720	3.4720	-2.5283	25.21	-0.10	-0.050	0.412	0.664	
0.8828	56501.14	3.4710	3.4711	-2.4980	25.17	-0.14	-0.050			
0.8854	56663.83	3.4700	3.4701	-2.4606	25.12	-0.19	-0.050			
0.8879	56823.37	3.4690	3.4690	-2.4169	25.10	-0.21	-0.050			
0.8903	56978.95	3.4680	3.4682	-2.3684	25.10	-0.21	-0.050			
0.8927	57131.66	3.4670	3.4670	-2.3171	25.08	-0.23	-0.050			
0.8950	57280.26	3.4660	3.4660	-2.2603	25.07	-0.24	-0.050			
0.8973	57425.04	3.4650	3.4651	-2.2009	25.05	-0.26	-0.050			
0.8995	57565.74	3.4640	3.4640	-2.1374	25.05	-0.26	-0.050			
0.9016	57701.62	3.4630	3.4630	-2.0715	25.05	-0.26	-0.050	0.417	0.600	
0.9037	57833.72	3.4620	3.4620	-2.0047	25.06	-0.25	-0.050			
0.9056	57960.36	3.4610	3.4610	-1.9334	25.05	-0.26	-0.050			
0.9075	58083.16	3.4600	3.4600	-1.8628	25.09	-0.22	-0.050			
0.9094	58201.06	3.4590	3.4589	-1.7913	25.10	-0.21	-0.050			
0.9112	58313.88	3.4580	3.4580	-1.7177	25.12	-0.19	-0.050			
0.9128	58422.28	3.4570	3.4571	-1.6442	25.15	-0.16	-0.050			
0.9145	58525.43	3.4560	3.4560	-1.5693	25.15	-0.16	-0.050			
0.9160	58624.05	3.4550	3.4551	-1.4954	25.17	-0.14	-0.050			
0.9175	58717.94	3.4540	3.4540	-1.4213	25.17	-0.14	-0.050			
0.9188	58805.80	3.4530	3.4530	-1.3501	25.17	-0.14	-0.050			
0.9201	58888.72	3.4520	3.4520	-1.2771	25.18	-0.13	-0.050	0.544	0.730	
0.9213	58966.19	3.4510	3.4510	-1.2056	25.19	-0.12	-0.050			
0.9225	59039.41	3.4500	3.4500	-1.1379	25.19	-0.12	-0.050			
0.9236	59109.22	3.4490	3.4490	-1.0687	25.20	-0.11	-0.050			
0.9246	59172.91	3.4480	3.4480	-1.0053	25.22	-0.09	-0.050			
0.9255	59233.63	3.4470	3.4469	-0.9477	25.21	-0.10	-0.050			
0.9264	59289.21	3.4460	3.4460	-0.8913	25.21	-0.10	-0.050			
0.9272	59341.82	3.4450	3.4449	-0.8404	25.21	-0.10	-0.050			
0.9280	59391.27	3.4440	3.4439	-0.7842	25.21	-0.10	-0.050			
0.9287	59437.06	3.4430	3.4430	-0.7397	25.22	-0.09	-0.050			
0.9294	59479.63	3.4420	3.4419	-0.6981	25.22	-0.09	-0.050			
0.9300	59521.17	3.4410	3.4409	-0.6543	25.22	-0.09	-0.050			
0.9306	59558.40	3.4400	3.4400	-0.6190	25.23	-0.08	-0.050			
0.9312	59595.86	3.4390	3.4389	-0.5831	25.23	-0.08	-0.050			
0.9317	59628.87	3.4380	3.4380	-0.5536	25.23	-0.08	-0.050			
0.9322	59661.15	3.4370	3.4370	-0.5290	25.23	-0.08	-0.050			
0.9327	59692.21	3.4360	3.4359	-0.4995	25.23	-0.08	-0.050			
0.9331	59721.09	3.4350	3.4349	-0.4788	25.23	-0.08	-0.050			
0.9336	59750.04	3.4340	3.4339	-0.4559	25.24	-0.07	-0.050			
0.9340	59775.31	3.4330	3.4330	-0.4362	25.25	-0.06	-0.050			
0.9344	59801.87	3.4320	3.4319	-0.4181	25.26	-0.05	-0.050			
0.9348	59826.33	3.4310	3.4310	-0.4040	25.26	-0.05	-0.050			
0.9352	59850.75	3.4300	3.4300	-0.3884	25.27	-0.04	-0.050			
0.9355	59874.41	3.4290	3.4290	-0.3791	25.27	-0.04	-0.050			
0.9359	59897.46	3.4280	3.4280	-0.3666	25.27	-0.04	-0.050			
0.9362	59919.13	3.4270	3.4269	-0.3573	25.27	-0.04	-0.050			
0.9366	59941.05	3.4260	3.4261	-0.3472	25.27	-0.04	-0.050			
0.9369	59961.73	3.4250	3.4249	-0.3394	25.28	-0.03	-0.050			
0.9372	59983.25	3.4240	3.4240	-0.3329	25.28	-0.03	-0.050			
0.9376	60003.75	3.4230	3.4230	-0.3252	25.28	-0.03	-0.050			
0.9379	60023.77	3.4220	3.4221	-0.3194	25.28	-0.03	-0.050			
0.9382	60044.04	3.4210	3.4210	-0.3141	25.28	-0.03	-0.050			
0.9385	60063.17	3.4200	3.4200	-0.3090	25.29	-0.02	-0.050			
0.9388	60082.80	3.4190	3.4190	-0.3046	25.29	-0.02	-0.050			
0.9391	60101.55	3.4180	3.4181	-0.3004	25.29	-0.02	-0.050			
0.9394	60120.50	3.4170	3.4169	-0.2962	25.29	-0.02	-0.050			
0.9397	60139.34	3.4160	3.4161	-0.2926	25.29	-0.02	-0.050			
0.9400	60157.43	3.4150	3.4150	-0.2892	25.29	-0.02	-0.050			
0.9402	60175.84	3.4140	3.4140	-0.2862	25.29	-0.02	-0.050			
0.9405	60193.70	3.4130	3.4130	-0.2831	25.29	-0.02	-0.050			
0.9408	60211.73	3.4120	3.4120	-0.2805	25.30	-0.01	-0.050	0.483	0.689	
0.9411	60229.32	3.4110	3.4110	-0.2778	25.30	-0.01	-0.050			
0.9414	60247.03	3.4100	3.4099	-0.2755	25.31	-0.00	-0.050			
0.9416	60264.53	3.4090	3.4091	-0.2730	25.31	0.00	-0.050			
0.9419	60281.82	3.4080	3.4080	-0.2712	25.31	0.00	-0.050			
0.9422	60298.95	3.4070	3.4071	-0.2687	25.31	0.00	-0.050			
0.9424	60316.01	3.4060	3.4059	-0.2669	25.31	0.00	-0.050			
0.9427	60332.93	3.4050	3.4051	-0.2647	25.32	0.01	-0.050			
0.9430	60349.82	3.4040	3.4040	-0.2629	25.32	0.01	-0.050			
0.9432	60366.49	3.4030	3.4030	-0.2615	25.32	0.01	-0.050			
0.9435	60383.09	3.4020	3.4021	-0.2597	25.32	0.01	-0.050			
0.9437	60399.64	3.4010	3.4009	-0.2582	25.32	0.01	-0.050			
0.9440	60416.07	3.4000	3.4000	-0.2565	25.32	0.01	-0.050			
0.9443	60432.44	3.3990	3.3990	-0.2550	25.32	0.01	-0.050			
0.9445	60448.63	3.3980	3.3980	-0.2532	25.33	0.02	-0.050			
0.9448	60464.79	3.3970	3.3970	-0.2518	25.33	0.02	-0.050			
0.9450	60480.87	3.3960	3.3960	-0.2503	25.34	0.03	-0.050			
0.9453	60496.86	3.3950	3.3951	-0.2488	25.34	0.03	-0.050			
0.9455	60512.74	3.3940	3.3939	-0.2473	25.35	0.04	-0.050			
0.9458	60528.42	3.3930	3.3929	-0.2460	25.35	0.04	-0.050			
0.9460	60544.12	3.3920	3.3921	-0.2446	25.36	0.05	-0.050			
0.9462	60559.75	3.3910	3.3910	-0.2433	25.37	0.06	-0.050			
0.9465	60575.16	3.3900	3.3901	-0.2423	25.37	0.06	-0.050			
0.9467	60590.63	3.3890	3.3890	-0.2410	25.36	0.05	-0.050			
0.9470	60605.97	3.3880	3.3880	-0.2397	25.36	0.05	-0.050			
0.9472	60621.30	3.3870	3.3870	-0.2383	25.35	0.04	-0.050			
0.9474	60636.46	3.3860	3.3860	-0.2370	25.36	0.05	-0.050			
0.9477	60651.50	3.3850	3.3850	-0.2360	25.36	0.05	-0.050			
0.9479	60666.57	3.3840	3.3840	-0.2349	25.37	0.06	-0.050			
0.9481	60681.50	3.3830	3.3830	-0.2336	25.37	0.06	-0.050			
0.9484	60696.43	3.3820	3.3820	-0.2325	25.37	0.06	-0.050			
0.9486	60711.19	3.3810	3.3810	-0.2312	25.37	0.06	-0.050			
0.9488	60725.96	3.3800	3.3800	-0.2302	25.37	0.06	-0.050			
0.9491	60740.61	3.3790	3.3792	-0.2294	25.37	0.06	-0.050			
0.9493	60755.27	3.3780	3.3780	-0.2285	25.37	0.06	-0.050			
0.9495	60769.87	3.3770	3.3770	-0.2276	25.38	0.07	-0.050			
0.9498	60784.38	3.3760	3.3760	-0.2267	25.38	0.07	-0.050			
0.9500	60798.86	3.3750	3.3749	-0.2258	25.38	0.07	-0.050			
0.9502	60813.28	3.3740	3.3740	-0.2248	25.38	0.07	-0.050			
0.9504	60827.65	3.3730	3.3730	-0.2239	25.38	0.07	-0.050			
0.9507	60841.95	3.3720	3.3720	-0.2229	25.38	0.07	-0.050			
0.9509	60856.19	3.3710	3.3710	-0.2220	25.38	0.07	-0.050			
0.9511	60870.34	3.3700	3.3700	-0.2208	25.37	0.06	-0.050			
0.9513	60884.44	3.3690	3.3690	-0.2199	25.37	0.06	-0.050			
0.9515	60898.48	3.3680	3.3680	-0.2189	25.37	0.06	-0.050			
0.9518	60912.47	3.3670	3.3670	-0.2179	25.37	0.06	-0.050			
0.9520	60926.39	3.3660	3.3660	-0.2170	25.38	0.07	-0.050			
0.9522	60940.39	3.3650	3.3651	-0.2162	25.38	0.07	-0.050			
0.9524	60954.09	3.3640	3.3640	-0.2155	25.38	0.07	-0.050			
0.9526	60967.85	3.3630	3.3630	-0.2145	25.38	0.07	-0.050			
0.9528	60981.48	3.3620	3.3621	-0.2134	25.39	0.08	-0.050			
0.9530	60995.11	3.3610	3.3609	-0.2125	25.39	0.08	-0.050			
0.9533	61008.68	3.3600	3.3600	-0.2116	25.39	0.08	-0.050			
0.9535	61022.23	3.3590	3.3591	-0.2107	25.39	0.08	-0.050			
0.9537	61035.65	3.3580	3.3579	-0.2099	25.40	0.09	-0.050			
0.9539	61049.06	3.3570	3.3570	-0.2090	25.40	0.09	-0.050			
0.9541	61062.28	3.3560	3.3561	-0.2079	25.40	0.09	-0.050			
0.9543	61075.59	3.3550	3.3549	-0.2071	25.40	0.09	-0.050			
0.9545	61088.82	3.3540	3.3540	-0.2063	25.41	0.10	-0.050			
0.9547	61101.98	3.3530	3.3531	-0.2054	25.41	0.10	-0.050			
0.9549	61115.18	3.3520	3.3520	-0.2043	25.41	0.10	-0.050			
0.9551	61128.23	3.3510	3.3510	-0.2035	25.41	0.10	-0.050			
0.9553	61141.28	3.3500	3.3500	-0.2026	25.41	0.10	-0.050			
0.9555	61154.08	3.3490	3.3490	-0.2021	25.41	0.10	-0.050			
0.9557	61166.99	3.3480	3.3480	-0.2013	25.41	0.10	-0.050			
0.9559	61179.87	3.3470	3.3471	-0.2005	25.41	0.10	-0.050			
0.9561	61192.64	3.3460	3.3460	-0.1998	25.42	0.11	-0.050			
0.9563	61205.40	3.3450	3.3450	-0.1991	25.42	0.11	-0.050			
0.9565	61218.07	3.3440	3.3440	-0.1982	25.42	0.11	-0.050			
0.9567	61230.73	3.3430	3.3430	-0.1975	25.42	0.11	-0.050			
0.9569	61243.29	3.3420	3.3420	-0.1969	25.42	0.11	-0.050			
0.9571	61255.75	3.3410	3.3410	-0.1960	25.42	0.11	-0.050			
0.9573	61268.28	3.3400	3.3400	-0.1955	25.42	0.11	-0.050			
0.9575	61280.89	3.3390	3.3389	-0.1944	25.42	0.11	-0.050			
0.9577	61293.34	3.3380	3.3380	-0.1938	25.43	0.12	-0.050			
0.9579	61305.72	3.3370	3.3371	-0.1930	25.43	0.12	-0.050			
0.9581	61318.05	3.3360	3.3360	-0.1923	25.43	0.12	-0.050			
0.9583	61330.35	3.3350	3.3350	-0.1916	25.43	0.12	-0.050			
0.9585	61342.59	3.3340	3.3340	-0.1908	25.43	0.12	-0.050			
0.9587	61354.78	3.3330	3.3329	-0.1901	25.43	0.12	-0.050			
0.9589	61367.01	3.3320	3.3320	-0.1895	25.43	0.12	-0.050			
0.9590	61379.12	3.3310	3.3310	-0.1886	25.43	0.12	-0.050			
0.9592	61391.17	3.3300	3.3301	-0.1878	25.43	0.12	-0.050			
0.9594	61403.17	3.3290	3.3290	-0.1873	25.43	0.12	-0.050			
0.9596	61415.13	3.3280	3.3280	-0.1865	25.43	0.12	-0.050			
0.9598	61427.04	3.3270	3.3270	-0.1857	25.43	0.12	-0.050			
0.9600	61438.71	3.3260	3.3259	-0.1846	25.43	0.12	-0.050			
0.9602	61450.42	3.3250	3.3250	-0.1841	25.43	0.12	-0.050			
0.9603	61462.18	3.3240	3.3241	-0.1835	25.43	0.12	-0.050			
0.9605	61473.91	3.3230	3.3230	-0.1829	25.43	0.12	-0.050			
0.9607	61485.52	3.3220	3.3220	-0.1822	25.43	0.12	-0.050	0.503	0.736	
0.9609	61497.16	3.3210	3.3210	-0.1817	25.43	0.12	-0.050			
0.9611	61508.77	3.3200	3.3200	-0.1812	25.44	0.13	-0.050			
0.9613	61520.23	3.3190	3.3190	-0.1805	25.44	0.13	-0.050			
0.9614	61531.83	3.3180	3.3180	-0.1798	25.44	0.13	-0.050			
0.9616	61543.33	3.3170	3.3171	-0.1793	25.44	0.13	-0.050			
0.9618	61554.89	3.3160	3.3160	-0.1790	25.44	0.13	-0.050			
0.9620	61566.40	3.3150	3.3149	-0.1782	25.43	0.12	-0.050			
0.9622	61577.79	3.3140	3.3140	-0.1775	25.43	0.12	-0.050			
0.9623	61589.13	3.3130	3.3130	-0.1769	25.43	0.12	-0.050			
0.9625	61600.42	3.3120	3.3120	-0.1762	25.43	0.12	-0.050			
0.9627	61611.71	3.3110	3.3110	-0.1755	25.43	0.12	-0.050			
0.9629	61622.93	3.3100	3.3101	-0.1748	25.43	0.12	-0.050			
0.9630	61634.18	3.3090	3.3090	-0.1743	25.43	0.12	-0.050			
0.9632	61645.32	3.3080	3.3080	-0.1736	25.43	0.12	-0.050			
0.9634	61656.34	3.3070	3.3070	-0.1730	25.44	0.13	-0.050			
0.9636	61667.39	3.3060	3.3060	-0.1723	25.44	0.13	-0.050			
0.9637	61678.36	3.3050	3.3050	-0.1715	25.45	0.14	-0.050			
0.9639	61689.21	3.3040	3.3041	-0.1710	25.45	0.14	-0.050			
0.9641	61700.13	3.3030	3.3031	-0.1704	25.45	0.14	-0.050			
0.9642	61710.93	3.3020	3.3020	-0.1696	25.45	0.14	-0.050			
0.9644	61721.77	3.3010	3.3009	-0.1691	25.45	0.14	-0.050			
0.9646	61732.62	3.3000	3.3000	-0.1684	25.45	0.14	-0.050			
0.9647	61743.38	3.2990	3.2991	-0.1678	25.45	0.14	-0.050			
0.9649	61754.05	3.2980	3.2979	-0.1672	25.45	0.14	-0.050			
0.9651	61764.73	3.2970	3.2969	-0.1666	25.46	0.15	-0.050			
0.9652	61775.39	3.2960	3.2960	-0.1660	25.46	0.15	-0.050			
0.9654	61786.00	3.2950	3.2950	-0.1655	25.47	0.16	-0.050			
0.9656	61796.58	3.2940	3.2940	-0.1649	25.47	0.16	-0.050			
0.9657	61807.12	3.2930	3.2930	-0.1644	25.47	0.16	-0.050			
0.9659	61817.61	3.2920	3.2920	-0.1638	25.46	0.15	-0.050			
0.9661	61828.13	3.2910	3.2910	-0.1634	25.46	0.15	-0.050			
0.9662	61838.57	3.2900	3.2900	-0.1628	25.45	0.14	-0.050			
0.9664	61848.98	3.2890	3.2890	-0.1622	25.45	0.14	-0.050			
0.9666	61859.39	3.2880	3.2880	-0.1615	25.45	0.14	-0.050			
0.9667	61869.73	3.2870	3.2870	-0.1609	25.46	0.15	-0.050			
0.9669	61880.00	3.2860	3.2860	-0.1602	25.46	0.15	-0.050			
0.9670	61890.24	3.2850	3.2850	-0.1596	25.47	0.16	-0.050			
0.9672	61900.31	3.2840	3.2841	-0.1592	25.47	0.16	-0.050			
0.9674	61910.48	3.2830	3.2830	-0.1586	25.47	0.16	-0.050			
0.9675	61920.61	3.2820	3.2820	-0.1581	25.47	0.16	-0.050			
0.9677	61930.71	3.2810	3.2810	-0.1576	25.47	0.16	-0.050			
0.9678	61940.71	3.2800	3.2801	-0.1568	25.47	0.16	-0.050			
0.9680	61950.73	3.2790	3.2790	-0.1564	25.47	0.16	-0.050			
0.9681	61960.72	3.2780	3.2780	-0.1559	25.47	0.16	-0.050			
0.9683	61970.69	3.2770	3.2770	-0.1554	25.47	0.16	-0.050			
0.9684	61980.67	3.2760	3.2760	-0.1549	25.47	0.16	-0.050			
0.9686	61990.57	3.2750	3.2749	-0.1544	25.47	0.16	-0.050			
0.9688	62000.44	3.2740	3.2739	-0.1539	25.47	0.16	-0.050			
0.9689	62010.27	3.2730	3.2730	-0.1534	25.47	0.16	-0.050			
0.9691	62020.01	3.2720	3.2720	-0.1528	25.47	0.16	-0.050			
0.9692	62029.78	3.2710	3.2710	-0.1523	25.48	0.17	-0.050			
0.9694	62039.51	3.2700	3.2700	-0.1519	25.48	0.17	-0.050			
0.9695	62049.22	3.2690	3.2690	-0.1514	25.49	0.18	-0.050			
0.9697	62058.87	3.2680	3.2680	-0.1509	25.49	0.18	-0.050			
0.9698	62068.57	3.2670	3.2670	-0.1503	25.49	0.18	-0.050			
0.9700	62078.17	3.2660	3.2660	-0.1497	25.48	0.17	-0.050			
0.9701	62087.74	3.2650	3.2650	-0.1492	25.48	0.17	-0.050			
0.9703	62097.39	3.2640	3.2640	-0.1489	25.48	0.17	-0.050			
0.9704	62106.80	3.2630	3.2630	-0.1485	25.47	0.16	-0.050			
0.9706	62116.29	3.2620	3.2620	-0.1480	25.47	0.16	-0.050			
0.9707	62125.74	3.2610	3.2610	-0.1475	25.47	0.16	-0.050			
0.9709	62135.03	3.2600	3.2600	-0.1467	25.47	0.16	-0.050			
0.9710	62144.43	3.2590	3.2590	-0.1463	25.48	0.17	-0.050			
0.9712	62153.77	3.2580	3.2580	-0.1458	25.48	0.17	-0.050			
0.9713	62163.09	3.2570	3.2570	-0.1454	25.48	0.17	-0.050			
0.9714	62172.40	3.2560	3.2560	-0.1450	25.48	0.17	-0.050			
0.9716	62181.67	3.2550	3.2550	-0.1446	25.48	0.17	-0.050			
0.9717	62190.89	3.2540	3.2539	-0.1442	25.48	0.17	-0.050			
0.9719	62200.10	3.2530	3.2529	-0.1437	25.47	0.16	-0.050			
0.9720	62209.27	3.2520	3.2520	-0.1433	25.47	0.16	-0.050			
0.9722	62218.42	3.2510	3.2510	-0.1429	25.47	0.16	-0.050			
0.9723	62227.67	3.2500	3.2500	-0.1422	25.47	0.16	-0.050			
0.9724	62236.75	3.2490	3.2490	-0.1417	25.48	0.17	-0.050			
0.9726	62245.80	3.2480	3.2480	-0.1412	25.48	0.17	-0.050			
0.9727	62254.85	3.2470	3.2470	-0.1407	25.48	0.17	-0.050			
0.9729	62263.83	3.2460	3.2460	-0.1402	25.49	0.18	-0.050			
0.9730	62272.78	3.2450	3.2450	-0.1396	25.49	0.18	-0.050			
0.9732	62281.70	3.2440	3.2440	-0.1391	25.49	0.18	-0.050			
0.9733	62290.69	3.2430	3.2430	-0.1388	25.49	0.18	-0.050			
0.9734	62299.56	3.2420	3.2421	-0.1382	25.49	0.18	-0.050			
0.9736	62308.38	3.2410	3.2410	-0.1376	25.48	0.17	-0.050			
0.9737	62317.13	3.2400	3.2400	-0.1371	25.48	0.17	-0.050			
0.9738	62325.85	3.2390	3.2390	-0.1364	25.48	0.17	-0.050			
0.9740	62334.57	3.2380	3.2380	-0.1359	25.48	0.17	-0.050			
0.9741	62343.25	3.2370	3.2370	-0.1354	25.48	0.17	-0.050			
0.9742	62351.81	3.2360	3.2360	-0.1350	25.48	0.17	-0.050			
0.9744	62360.44	3.2350	3.2349	-0.1346	25.49	0.18	-0.050			
0.9745	62368.99	3.2340	3.2340	-0.1340	25.49	0.18	-0.050			
0.9746	62377.55	3.2330	3.2330	-0.1335	25.49	0.18	-0.050			
0.9748	62386.08	3.2320	3.2320	-0.1331	25.49	0.18	-0.050			
0.9749	62394.48	3.2310	3.2310	-0.1330	25.49	0.18	-0.050			
0.9750	62402.84	3.2300	3.2300	-0.1323	25.50	0.19	-0.050			
0.9752	62411.30	3.2290	3.2290	-0.1320	25.50	0.19	-0.050			
0.9753	62419.74	3.2280	3.2280	-0.1318	25.50	0.19	-0.050			
0.9754	62428.17	3.2270	3.2270	-0.1315	25.51	0.20	-0.050			
0.9756	62436.76	3.2260	3.2259	-0.1307	25.51	0.20	-0.050			
0.9757	62445.20	3.2250	3.2250	-0.1305	25.51	0.20	-0.050			
0.9758	62453.54	3.2240	3.2240	-0.1300	25.51	0.20	-0.050			
0.9760	62461.85	3.2230	3.2231	-0.1296	25.51	0.20	-0.050			
0.9761	62470.13	3.2220	3.2220	-0.1291	25.51	0.20	-0.050			
0.9762	62478.33	3.2210	3.2209	-0.1288	25.51	0.20	-0.050			
0.9764	62486.58	3.2200	3.2200	-0.1284	25.51	0.20	-0.050			
0.9765	62494.78	3.2190	3.2191	-0.1280	25.51	0.20	-0.050			
0.9766	62502.96	3.2180	3.2181	-0.1276	25.51	0.20	-0.050			
0.9767	62511.11	3.2170	3.2171	-0.1271	25.51	0.20	-0.050			
0.9769	62519.28	3.2160	3.2160	-0.1269	25.50	0.19	-0.050			
0.9770	62527.38	3.2150	3.2151	-0.1264	25.50	0.19	-0.050			
0.9771	62535.46	3.2140	3.2140	-0.1259	25.50	0.19	-0.050			
0.9772	62543.50	3.2130	3.2130	-0.1255	25.50	0.19	-0.050			
0.9774	62551.51	3.2120	3.2119	-0.1250	25.50	0.19	-0.050			
0.9775	62559.32	3.2110	3.2109	-0.1246	25.50	0.19	-0.050			
0.9776	62567.28	3.2100	3.2100	-0.1243	25.50	0.19	-0.050			
0.9777	62575.23	3.2090	3.2090	-0.1240	25.51	0.20	-0.050			
0.9779	62583.15	3.2080	3.2081	-0.1237	25.51	0.20	-0.050			
0.9780	62591.06	3.2070	3.2070	-0.1233	25.51	0.20	-0.050			
0.9781	62598.95	3.2060	3.2060	-0.1225	25.51	0.20	-0.050			
0.9782	62606.77	3.2050	3.2050	-0.1221	25.51	0.20	-0.050			
0.9784	62614.58	3.2040	3.2040	-0.1218	25.51	0.20	-0.050			
0.9785	62622.36	3.2030	3.2030	-0.1215	25.51	0.20	-0.050			
0.9786	62630.12	3.2020	3.2020	-0.1211	25.51	0.20	-0.050			
0.9787	62638.12	3.2010	3.2009	-0.1211	25.51	0.20	-0.050			
0.9788	62645.82	3.2000	3.1999	-0.1206	25.51	0.20	-0.050			
0.9790	62653.52	3.1990	3.1990	-0.1201	25.51	0.20	-0.050			
0.9791	62661.19	3.1980	3.1981	-0.1196	25.51	0.20	-0.050			
0.9792	62668.83	3.1970	3.1971	-0.1191	25.51	0.20	-0.050			
0.9793	62676.42	3.1960	3.1960	-0.1186	25.51	0.20	-0.050			
0.9794	62684.00	3.1950	3.1950	-0.1181	25.51	0.20	-0.050			
0.9796	62691.54	3.1940	3.1940	-0.1177	25.51	0.20	-0.050			
0.9797	62699.00	3.1930	3.1930	-0.1174	25.51	0.20	-0.050			
0.9798	62706.51	3.1920	3.1920	-0.1170	25.51	0.20	-0.050			
0.9799	62714.00	3.1910	3.1910	-0.1166	25.51	0.20	-0.050			
0.9800	62721.45	3.1900	3.1900	-0.1162	25.51	0.20	-0.050			
0.9801	62728.77	3.1890	3.1890	-0.1159	25.51	0.20	-0.050			
0.9803	62736.18	3.1880	3.1881	-0.1156	25.51	0.20	-0.050			
0.9804	62743.56	3.1870	3.1871	-0.1152	25.51	0.20	-0.050			
0.9805	62750.72	3.1860	3.1861	-0.1145	25.51	0.20	-0.050			
0.9806	62758.04	3.1850	3.1851	-0.1143	25.51	0.20	-0.050			
0.9807	62765.43	3.1840	3.1841	-0.1139	25.51	0.20	-0.050	0.519	0.747	
0.9808	62772.71	3.1830	3.1831	-0.1136	25.51	0.20	-0.050			
0.9809	62779.97	3.1820	3.1821	-0.1133	25.51	0.20	-0.050			
0.9811	62787.22	3.1810	3.1811	-0.1130	25.51	0.20	-0.050			
0.9812	62794.50	3.1800	3.1800	-0.1128	25.51	0.20	-0.050			
0.9813	62801.71	3.1790	3.1790	-0.1125	25.51	0.20	-0.050			
0.9814	62808.93	3.1780	3.1780	-0.1121	25.51	0.20	-0.050			
0.9815	62816.09	3.1770	3.1770	-0.1117	25.51	0.20	-0.050			
0.9816	62823.23	3.1760	3.1760	-0.1114	25.51	0.20	-0.050			
0.9817	62830.35	3.1750	3.1750	-0.1110	25.51	0.20	-0.050			
0.9818	62837.44	3.1740	3.1740	-0.1107	25.52	0.21	-0.050			
0.9819	62844.61	3.1730	3.1730	-0.1104	25.52	0.21	-0.050			
0.9821	62851.63	3.1720	3.1720	-0.1100	25.52	0.21	-0.050			
0.9822	62858.66	3.1710	3.1710	-0.1097	25.52	0.21	-0.050			
0.9823	62865.67	3.1700	3.1700	-0.1093	25.52	0.21	-0.050			
0.9824	62872.62	3.1690	3.1690	-0.1088	25.52	0.21	-0.050			
0.9825	62879.58	3.1680	3.1680	-0.1085	25.52	0.21	-0.050			
0.9826	62886.51	3.1670	3.1669	-0.1081	25.52	0.21	-0.050			
0.9827	62893.45	3.1660	3.1659	-0.1076	25.52	0.21	-0.050			
0.9828	62900.32	3.1650	3.1650	-0.1072	25.52	0.21	-0.050			
0.9829	62907.18	3.1640	3.1640	-0.1068	25.52	0.21	-0.050			
0.9830	62914.01	3.1630	3.1630	-0.1064	25.52	0.21	-0.050			
0.9831	62920.80	3.1620	3.1620	-0.1060	25.52	0.21	-0.050			
0.9832	62927.58	3.1610	3.1610	-0.1056	25.52	0.21	-0.050			
0.9833	62934.26	3.1600	3.1600	-0.1054	25.52	0.21	-0.050			
0.9835	62941.00	3.1590	3.1589	-0.1050	25.52	0.21	-0.050			
0.9836	62947.69	3.1580	3.1580	-0.1047	25.53	0.22	-0.050			
0.9837	62954.37	3.1570	3.1571	-0.1043	25.53	0.22	-0.050			
0.9838	62961.04	3.1560	3.1560	-0.1040	25.53	0.22	-0.050			
0.9839	62967.65	3.1550	3.1550	-0.1037	25.53	0.22	-0.050			
0.9840	62974.28	3.1540	3.1541	-0.1034	25.53	0.22	-0.050			
0.9841	62980.88	3.1530	3.1530	-0.1030	25.53	0.22	-0.050			
0.9842	62987.42	3.1520	3.1520	-0.1026	25.53	0.22	-0.050			
0.9843	62993.98	3.1510	3.1510	-0.1023	25.53	0.22	-0.050			
0.9844	63000.52	3.1500	3.1500	-0.1020	25.53	0.22	-0.050			
0.9845	63007.04	3.1490	3.1490	-0.1017	25.53	0.22	-0.050			
0.9846	63013.54	3.1480	3.1480	-0.1014	25.53	0.22	-0.050			
0.9847	63020.02	3.1470	3.1469	-0.1011	25.53	0.22	-0.050			
0.9848	63026.44	3.1460	3.1461	-0.1008	25.53	0.22	-0.050			
0.9849	63032.88	3.1450	3.1450	-0.1005	25.53	0.22	-0.050			
0.9850	63039.30	3.1440	3.1440	-0.1002	25.54	0.23	-0.050			
0.9851	63045.71	3.1430	3.1430	-0.0999	25.54	0.23	-0.050			
0.9852	63052.09	3.1420	3.1420	-0.0997	25.54	0.23	-0.050			
0.9853	63058.49	3.1410	3.1410	-0.0993	25.54	0.23	-0.050			
0.9854	63064.91	3.1400	3.1400	-0.0991	25.55	0.24	-0.050			
0.9855	63071.24	3.1390	3.1390	-0.0988	25.55	0.24	-0.050			
0.9856	63077.55	3.1380	3.1380	-0.0984	25.55	0.24	-0.050			
0.9857	63083.84	3.1370	3.1370	-0.0981	25.55	0.24	-0.050			
0.9858	63090.11	3.1360	3.1360	-0.0978	25.55	0.24	-0.050			
0.9859	63096.31	3.1350	3.1350	-0.0974	25.55	0.24	-0.050			
0.9860	63102.54	3.1340	3.1340	-0.0971	25.55	0.24	-0.050			
0.9861	63108.74	3.1330	3.1330	-0.0968	25.55	0.24	-0.050			
0.9862	63114.93	3.1320	3.1320	-0.0965	25.55	0.24	-0.050			
0.9863	63121.10	3.1310	3.1310	-0.0962	25.55	0.24	-0.050			
0.9864	63127.25	3.1300	3.1300	-0.0959	25.55	0.24	-0.050			
0.9865	63133.37	3.1290	3.1290	-0.0956	25.55	0.24	-0.050			
0.9866	63139.48	3.1280	3.1280	-0.0953	25.55	0.24	-0.050			
0.9866	63145.57	3.1270	3.1270	-0.0950	25.55	0.24	-0.050			
0.9867	63151.64	3.1260	3.1260	-0.0947	25.55	0.24	-0.050			
0.9868	63157.70	3.1250	3.1250	-0.0944	25.55	0.24	-0.050			
0.9869	63163.73	3.1240	3.1240	-0.0941	25.55	0.24	-0.050			
0.9870	63169.74	3.1230	3.1230	-0.0938	25.55	0.24	-0.050			
0.9871	63175.74	3.1220	3.1220	-0.0935	25.55	0.24	-0.050			
0.9872	63181.70	3.1210	3.1211	-0.0932	25.55	0.24	-0.050			
0.9873	63187.66	3.1200	3.1200	-0.0929	25.55	0.24	-0.050			
0.9874	63193.59	3.1190	3.1190	-0.0926	25.55	0.24	-0.050			
0.9875	63199.51	3.1180	3.1180	-0.0923	25.55	0.24	-0.050			
0.9876	63205.41	3.1170	3.1170	-0.0920	25.55	0.24	-0.050			
0.9877	63211.29	3.1160	3.1160	-0.0917	25.55	0.24	-0.050			
0.9878	63217.12	3.1150	3.1150	-0.0915	25.55	0.24	-0.050			
0.9879	63222.97	3.1140	3.1140	-0.0912	25.55	0.24	-0.050			
0.9879	63228.80	3.1130	3.1130	-0.0909	25.55	0.24	-0.050			
0.9880	63234.61	3.1120	3.1120	-0.0907	25.55	0.24	-0.050			
0.9881	63240.40	3.1110	3.1110	-0.0904	25.55	0.24	-0.050			
0.9882	63246.18	3.1100	3.1100	-0.0901	25.55	0.24	-0.050			
0.9883	63251.90	3.1090	3.1090	-0.0898	25.55	0.24	-0.050			
0.9884	63257.68	3.1080	3.1080	-0.0895	25.55	0.24	-0.050			
0.9885	63263.40	3.1070	3.1070	-0.0892	25.55	0.24	-0.050			
0.9886	63269.10	3.1060	3.1060	-0.0889	25.55	0.24	-0.050			
0.9887	63274.78	3.1050	3.1050	-0.0886	25.55	0.24	-0.050			
0.9888	63280.44	3.1040	3.1040	-0.0884	25.55	0.24	-0.050			
0.9888	63286.09	3.1030	3.1030	-0.0881	25.55	0.24	-0.050			
0.9889	63291.72	3.1020	3.1020	-0.0878	25.55	0.24	-0.050			
0.9890	63297.35	3.1010	3.1010	-0.0875	25.55	0.24	-0.050			
0.9891	63302.94	3.1000	3.1000	-0.0872	25.55	0.24	-0.050			
0.9892	63308.51	3.0990	3.0990	-0.0869	25.55	0.24	-0.050			
0.9893	63314.06	3.0980	3.0980	-0.0866	25.55	0.24	-0.050			
0.9894	63319.60	3.0970	3.0970	-0.0863	25.56	0.25	-0.050			
0.9895	63325.11	3.0960	3.0960	-0.0860	25.56	0.25	-0.050			
0.9895	63330.65	3.0950	3.0949	-0.0858	25.56	0.25	-0.050			
0.9896	63336.08	3.0940	3.0940	-0.0855	25.56	0.25	-0.050			
0.9897	63341.54	3.0930	3.0931	-0.0852	25.56	0.25	-0.050			
0.9898	63346.99	3.0920	3.0921	-0.0849	25.56	0.25	-0.050			
0.9899	63352.41	3.0910	3.0910	-0.0846	25.56	0.25	-0.050			
0.9900	63357.82	3.0900	3.0900	-0.0844	25.56	0.25	-0.050			
0.9901	63363.21	3.0890	3.0890	-0.0841	25.56	0.25	-0.050			
0.9901	63368.52	3.0880	3.0880	-0.0837	25.56	0.25	-0.050			
0.9902	63373.82	3.0870	3.0870	-0.0835	25.55	0.24	-0.050			
0.9903	63379.16	3.0860	3.0860	-0.0833	25.55	0.24	-0.050			
0.9904	63384.49	3.0850	3.0851	-0.0831	25.55	0.24	-0.050			
0.9905	63389.80	3.0840	3.0840	-0.0829	25.55	0.24	-0.050			
0.9905	63395.10	3.0830	3.0830	-0.0827	25.55	0.24	-0.050			
0.9906	63400.38	3.0820	3.0820	-0.0824	25.55	0.24	-0.050			
0.9907	63405.61	3.0810	3.0810	-0.0822	25.55	0.24	-0.050			
0.9908	63410.90	3.0800	3.0800	-0.0819	25.55	0.24	-0.050			
0.9909	63416.14	3.0790	3.0790	-0.0817	25.55	0.24	-0.050			
0.9910	63421.36	3.0780	3.0780	-0.0815	25.55	0.24	-0.050			
0.9910	63426.57	3.0770	3.0770	-0.0813	25.55	0.24	-0.050			
0.9911	63431.76	3.0760	3.0760	-0.0811	25.55	0.24	-0.050			
0.9912	63436.94	3.0750	3.0750	-0.0808	25.55	0.24	-0.050			
0.9913	63442.13	3.0740	3.0740	-0.0806	25.55	0.24	-0.050			
0.9914	63447.29	3.0730	3.0730	-0.0804	25.55	0.24	-0.050			
0.9914	63452.46	3.0720	3.0720	-0.0801	25.55	0.24	-0.050			
0.9915	63457.58	3.0710	3.0710	-0.0799	25.55	0.24	-0.050			
0.9916	63462.68	3.0700	3.0700	-0.0796	25.56	0.25	-0.050			
0.9917	63467.77	3.0690	3.0690	-0.0794	25.56	0.25	-0.050			
0.9918	63472.84	3.0680	3.0680	-0.0791	25.56	0.25	-0.050			
0.9918	63477.94	3.0670	3.0670	-0.0789	25.56	0.25	-0.050			
0.9919	63482.98	3.0660	3.0660	-0.0786	25.56	0.25	-0.050			
0.9920	63487.94	3.0650	3.0650	-0.0785	25.56	0.25	-0.050			
0.9921	63492.95	3.0640	3.0640	-0.0782	25.57	0.26	-0.050			
0.9922	63497.95	3.0630	3.0630	-0.0780	25.57	0.26	-0.050			
0.9922	63502.94	3.0620	3.0621	-0.0777	25.57	0.26	-0.050			
0.9923	63507.90	3.0610	3.0610	-0.0775	25.57	0.26	-0.050			
0.9924	63512.80	3.0600	3.0600	-0.0772	25.57	0.26	-0.050			
0.9925	63517.73	3.0590	3.0590	-0.0770	25.57	0.26	-0.050			
0.9925	63522.66	3.0580	3.0580	-0.0768	25.57	0.26	-0.050			
0.9926	63527.56	3.0570	3.0570	-0.0766	25.57	0.26	-0.050			
0.9927	63532.45	3.0560	3.0560	-0.0763	25.56	0.25	-0.050			
0.9928	63537.33	3.0550	3.0550	-0.0761	25.56	0.25	-0.050			
0.9928	63542.20	3.0540	3.0540	-0.0759	25.56	0.25	-0.050			
0.9929	63547.05	3.0530	3.0530	-0.0757	25.56	0.25	-0.050			
0.9930	63551.86	3.0520	3.0520	-0.0755	25.56	0.25	-0.050			
0.9931	63556.68	3.0510	3.0511	-0.0753	25.56	0.25	-0.050			
0.9931	63561.54	3.0500	3.0500	-0.0750	25.56	0.25	-0.050			
0.9932	63566.33	3.0490	3.0490	-0.0748	25.56	0.25	-0.050			
0.9933	63571.11	3.0480	3.0480	-0.0745	25.56	0.25	-0.050			
0.9934	63575.87	3.0470	3.0470	-0.0743	25.56	0.25	-0.050			
0.9934	63580.62	3.0460	3.0460	-0.0741	25.56	0.25	-0.050			
0.9935	63585.42	3.0450	3.0450	-0.0739	25.57	0.26	-0.050			
0.9936	63590.14	3.0440	3.0440	-0.0737	25.57	0.26	-0.050			
0.9937	63594.76	3.0430	3.0430	-0.0735	25.57	0.26	-0.050			
0.9937	63599.46	3.0420	3.0420	-0.0733	25.57	0.26	-0.050			
0.9938	63604.15	3.0410	3.0410	-0.0731	25.57	0.26	-0.050			
0.9939	63608.82	3.0400	3.0401	-0.0729	25.57	0.26	-0.050			
0.9940	63613.48	3.0390	3.0390	-0.0727	25.57	0.26	-0.050			
0.9940	63618.08	3.0380	3.0380	-0.0724	25.57	0.26	-0.050			
0.9941	63622.70	3.0370	3.0370	-0.0722	25.57	0.26	-0.050			
0.9942	63627.32	3.0360	3.0360	-0.0720	25.57	0.26	-0.050			
0.9942	63631.96	3.0350	3.0350	-0.0718	25.57	0.26	-0.050			
0.9943	63636.55	3.0340	3.0339	-0.0716	25.57	0.26	-0.050			
0.9944	63641.13	3.0330	3.0330	-0.0714	25.57	0.26	-0.050			
0.9945	63645.69	3.0320	3.0320	-0.0712	25.57	0.26	-0.050			
0.9945	63650.24	3.0310	3.0310	-0.0710	25.57	0.26	-0.050			
0.9946	63654.77	3.0300	3.0300	-0.0708	25.57	0.26	-0.050			
0.9947	63659.29	3.0290	3.0291	-0.0706	25.57	0.26	-0.050			
0.9947	63663.80	3.0280	3.0281	-0.0704	25.57	0.26	-0.050			
0.9948	63668.33	3.0270	3.0270	-0.0701	25.57	0.26	-0.050			
0.9949	63672.81	3.0260	3.0260	-0.0699	25.57	0.26	-0.050			
0.9950	63677.28	3.0250	3.0250	-0.0697	25.56	0.25	-0.050			
0.9950	63681.73	3.0240	3.0240	-0.0695	25.56	0.25	-0.050			
0.9951	63686.24	3.0230	3.0230	-0.0694	25.56	0.25	-0.050			
0.9952	63690.67	3.0220	3.0220	-0.0692	25.56	0.25	-0.050			
0.9952	63695.09	3.0210	3.0209	-0.0689	25.56	0.25	-0.050			
0.9953	63699.49	3.0200	3.0200	-0.0687	25.56	0.25	-0.050			
0.9954	63703.81	3.0190	3.0190	-0.0686	25.55	0.24	-0.050			
0.9954	63708.19	3.0180	3.0180	-0.0684	25.55	0.24	-0.050			
0.9955	63712.56	3.0170	3.0170	-0.0682	25.55	0.24	-0.050			
0.9956	63716.92	3.0160	3.0160	-0.0680	25.55	0.24	-0.050			
0.9956	63721.17	3.0150	3.0150	-0.0677	25.55	0.24	-0.050			
0.9957	63725.49	3.0140	3.0141	-0.0675	25.55	0.24	-0.050			
0.9958	63729.81	3.0130	3.0130	-0.0673	25.56	0.25	-0.050			
0.9958	63734.11	3.0120	3.0120	-0.0672	25.56	0.25	-0.050			
0.9959	63738.41	3.0110	3.0110	-0.0670	25.56	0.25	-0.050			
0.9960	63742.69	3.0100	3.0100	-0.0669	25.56	0.25	-0.050			
0.9960	63746.97	3.0090	3.0090	-0.0667	25.56	0.25	-0.050			
0.9961	63751.23	3.0080	3.0079	-0.0666	25.56	0.25	-0.050			
0.9962	63755.43	3.0070	3.0069	-0.0666	25.56	0.25	-0.050			
0.9962	63759.69	3.0060	3.0059	-0.0666	25.57	0.26	-0.050			
0.9963	63763.95	3.0050	3.0050	-0.0665	25.57	0.26	-0.050			
0.9964	63768.20	3.0040	3.0040	-0.0664	25.57	0.26	-0.050			
