Ah_balance (normalized)	Ah_balance (mAh)	Voltage - fit (V)	Voltage -  interpolate (V)	dQ/dV (1/V)	Temperature (°C)	Temperature - diff (°C)	Current (C)	R_DC 0ms (mOhm)	R_DC 50ms (mOhm)	R_DC 50 ms PEC (mOhm)
0.0003	16.56	4.1840	4.1834	-0.3404	25.18	-0.00	-0.050			
0.0006	40.39	4.1830	4.1829	-0.4011	25.17	-0.01	-0.050			
0.0010	66.66	4.1820	4.1820	-0.4322	25.16	-0.02	-0.050			
0.0015	96.23	4.1810	4.1807	-0.4810	25.15	-0.03	-0.050			
0.0020	129.53	4.1800	4.1799	-0.5288	25.14	-0.04	-0.050			
0.0026	166.89	4.1790	4.1791	-0.5737	25.14	-0.04	-0.050			
0.0032	206.14	4.1780	4.1778	-0.6108	25.12	-0.06	-0.050			
0.0039	249.60	4.1770	4.1770	-0.6435	25.12	-0.06	-0.050			
0.0046	293.63	4.1760	4.1754	-0.6704	25.12	-0.06	-0.050			
0.0053	339.17	4.1750	4.1743	-0.6930	25.11	-0.07	-0.050			
0.0060	386.14	4.1740	4.1733	-0.7110	25.10	-0.08	-0.050			
0.0068	435.02	4.1730	4.1731	-0.7217	25.11	-0.07	-0.050			
0.0076	486.62	4.1720	4.1723	-0.7444	25.11	-0.07	-0.050			
0.0084	535.32	4.1710	4.1711	-0.7522	25.10	-0.08	-0.050			
0.0092	586.86	4.1700	4.1702	-0.7634	25.10	-0.08	-0.050			
0.0100	637.82	4.1690	4.1691	-0.7705	25.08	-0.10	-0.050			
0.0108	689.29	4.1680	4.1682	-0.7745	25.08	-0.10	-0.050			
0.0116	741.02	4.1670	4.1672	-0.7783	25.08	-0.10	-0.050			
0.0124	792.03	4.1660	4.1662	-0.7784	25.06	-0.12	-0.050			
0.0132	845.85	4.1650	4.1649	-0.7684	25.06	-0.12	-0.050			
0.0140	895.03	4.1640	4.1639	-0.7598	25.06	-0.12	-0.050			
0.0148	945.02	4.1630	4.1629	-0.7482	25.06	-0.12	-0.050			
0.0155	991.39	4.1620	4.1619	-0.7315	25.05	-0.13	-0.050			
0.0162	1038.23	4.1610	4.1609	-0.7253	25.04	-0.14	-0.050			
0.0169	1084.06	4.1600	4.1600	-0.7181	25.04	-0.14	-0.050			
0.0176	1129.37	4.1590	4.1591	-0.7118	25.04	-0.14	-0.050			
0.0183	1173.96	4.1580	4.1582	-0.7070	25.04	-0.14	-0.050			
0.0190	1216.29	4.1570	4.1573	-0.7059	25.03	-0.15	-0.050			
0.0197	1260.23	4.1560	4.1564	-0.7038	25.02	-0.16	-0.050	0.436	0.504	
0.0204	1303.51	4.1550	4.1555	-0.7029	25.01	-0.17	-0.050			
0.0210	1346.88	4.1540	4.1536	-0.7031	25.00	-0.18	-0.050			
0.0217	1388.21	4.1530	4.1526	-0.7035	24.98	-0.20	-0.050			
0.0224	1431.90	4.1520	4.1520	-0.7070	24.97	-0.21	-0.050			
0.0231	1475.66	4.1510	4.1510	-0.7122	24.96	-0.22	-0.050			
0.0238	1520.48	4.1500	4.1501	-0.7181	24.96	-0.22	-0.050			
0.0245	1566.31	4.1490	4.1490	-0.7248	24.96	-0.22	-0.050			
0.0252	1613.08	4.1480	4.1480	-0.7290	24.97	-0.21	-0.050			
0.0259	1660.66	4.1470	4.1470	-0.7380	24.98	-0.20	-0.050			
0.0267	1709.23	4.1460	4.1462	-0.7487	24.98	-0.20	-0.050			
0.0275	1759.40	4.1450	4.1452	-0.7593	25.00	-0.18	-0.050			
0.0283	1808.65	4.1440	4.1440	-0.7639	25.02	-0.16	-0.050			
0.0291	1861.10	4.1430	4.1429	-0.7750	25.02	-0.16	-0.050			
0.0299	1911.25	4.1420	4.1420	-0.7750	25.03	-0.15	-0.050			
0.0306	1961.13	4.1410	4.1411	-0.7754	25.04	-0.14	-0.050			
0.0314	2011.38	4.1400	4.1400	-0.7781	25.05	-0.13	-0.050			
0.0322	2061.08	4.1390	4.1390	-0.7776	25.06	-0.12	-0.050			
0.0330	2110.87	4.1380	4.1380	-0.7791	25.06	-0.12	-0.050			
0.0338	2160.26	4.1370	4.1371	-0.7822	25.07	-0.11	-0.050			
0.0345	2210.32	4.1360	4.1360	-0.7847	25.09	-0.09	-0.050			
0.0353	2260.59	4.1350	4.1349	-0.7862	25.10	-0.08	-0.050			
0.0361	2310.72	4.1340	4.1341	-0.7872	25.11	-0.07	-0.050			
0.0369	2360.71	4.1330	4.1331	-0.7886	25.13	-0.05	-0.050			
0.0377	2411.26	4.1320	4.1318	-0.7900	25.14	-0.04	-0.050			
0.0385	2461.78	4.1310	4.1309	-0.7924	25.14	-0.04	-0.050			
0.0393	2512.59	4.1300	4.1301	-0.7941	25.16	-0.02	-0.050			
0.0401	2563.75	4.1290	4.1290	-0.7965	25.16	-0.02	-0.050	0.581	0.641	
0.0409	2615.01	4.1280	4.1278	-0.7993	25.16	-0.02	-0.050			
0.0417	2666.42	4.1270	4.1271	-0.8022	25.16	-0.02	-0.050			
0.0425	2717.48	4.1260	4.1260	-0.8024	25.18	-0.00	-0.050			
0.0433	2768.72	4.1250	4.1248	-0.8046	25.18	0.00	-0.050			
0.0441	2820.73	4.1240	4.1240	-0.8061	25.19	0.01	-0.050			
0.0449	2872.68	4.1230	4.1230	-0.8085	25.20	0.02	-0.050			
0.0457	2924.94	4.1220	4.1221	-0.8083	25.20	0.02	-0.050			
0.0465	2977.15	4.1210	4.1210	-0.8107	25.20	0.02	-0.050			
0.0473	3029.24	4.1200	4.1202	-0.8109	25.21	0.03	-0.050			
0.0481	3081.01	4.1190	4.1191	-0.8109	25.23	0.05	-0.050			
0.0490	3132.93	4.1180	4.1180	-0.8111	25.24	0.06	-0.050			
0.0498	3184.12	4.1170	4.1172	-0.8116	25.25	0.07	-0.050			
0.0506	3236.36	4.1160	4.1161	-0.8135	25.26	0.08	-0.050			
0.0514	3288.40	4.1150	4.1151	-0.8145	25.26	0.08	-0.050			
0.0522	3340.80	4.1140	4.1139	-0.8156	25.27	0.09	-0.050			
0.0530	3392.82	4.1130	4.1130	-0.8163	25.28	0.10	-0.050			
0.0538	3445.05	4.1120	4.1121	-0.8170	25.28	0.10	-0.050			
0.0546	3497.40	4.1110	4.1110	-0.8172	25.28	0.10	-0.050			
0.0555	3550.06	4.1100	4.1100	-0.8177	25.29	0.11	-0.050			
0.0563	3602.38	4.1090	4.1090	-0.8184	25.30	0.12	-0.050			
0.0571	3654.42	4.1080	4.1079	-0.8198	25.30	0.12	-0.050			
0.0579	3706.82	4.1070	4.1070	-0.8202	25.30	0.12	-0.050			
0.0587	3759.43	4.1060	4.1060	-0.8223	25.31	0.13	-0.050			
0.0596	3812.18	4.1050	4.1050	-0.8230	25.31	0.13	-0.050			
0.0604	3865.10	4.1040	4.1040	-0.8244	25.32	0.14	-0.050	0.608	0.767	
0.0612	3918.14	4.1030	4.1031	-0.8251	25.33	0.15	-0.050			
0.0620	3968.53	4.1020	4.1020	-0.8340	25.34	0.16	-0.050			
0.0628	4020.20	4.1010	4.1010	-0.8391	25.34	0.16	-0.050			
0.0636	4071.58	4.1000	4.1003	-0.8511	25.34	0.16	-0.050			
0.0645	4125.19	4.0990	4.0991	-0.8613	25.35	0.17	-0.050			
0.0653	4180.28	4.0980	4.0982	-0.8695	25.34	0.16	-0.050			
0.0662	4236.13	4.0970	4.0971	-0.8746	25.33	0.15	-0.050			
0.0671	4293.15	4.0960	4.0959	-0.8825	25.31	0.13	-0.050			
0.0682	4364.99	4.0950	4.0946	-0.8582	25.28	0.10	-0.050			
0.0691	4421.82	4.0940	4.0933	-0.8587	25.26	0.08	-0.050			
0.0700	4478.51	4.0930	4.0924	-0.8537	25.25	0.07	-0.050			
0.0708	4534.12	4.0920	4.0914	-0.8437	25.24	0.06	-0.050			
0.0718	4593.57	4.0910	4.0913	-0.8119	25.21	0.03	-0.050			
0.0726	4645.33	4.0900	4.0904	-0.7994	25.20	0.02	-0.050			
0.0734	4696.73	4.0890	4.0894	-0.7837	25.19	0.01	-0.050			
0.0742	4747.86	4.0880	4.0885	-0.7723	25.18	0.00	-0.050			
0.0749	4793.44	4.0870	4.0876	-0.7663	25.16	-0.02	-0.050			
0.0756	4839.33	4.0860	4.0868	-0.7537	25.14	-0.04	-0.050			
0.0763	4882.46	4.0850	4.0859	-0.7417	25.12	-0.06	-0.050			
0.0769	4921.44	4.0840	4.0834	-0.7413	25.10	-0.08	-0.050			
0.0776	4964.00	4.0830	4.0822	-0.7369	25.09	-0.09	-0.050			
0.0782	5002.62	4.0820	4.0817	-0.7312	25.08	-0.10	-0.050			
0.0788	5044.52	4.0810	4.0808	-0.7364	25.07	-0.11	-0.050			
0.0795	5086.58	4.0800	4.0800	-0.7364	25.05	-0.13	-0.050			
0.0802	5133.80	4.0790	4.0791	-0.7524	25.04	-0.14	-0.050	1.111	1.080	
0.0810	5184.02	4.0780	4.0779	-0.7651	25.03	-0.15	-0.050			
0.0818	5234.23	4.0770	4.0775	-0.7816	25.02	-0.16	-0.050			
0.0826	5288.55	4.0760	4.0762	-0.8005	25.03	-0.15	-0.050			
0.0835	5344.99	4.0750	4.0752	-0.8272	25.02	-0.16	-0.050			
0.0844	5399.08	4.0740	4.0743	-0.8360	25.02	-0.16	-0.050			
0.0852	5453.81	4.0730	4.0731	-0.8418	25.04	-0.14	-0.050			
0.0861	5508.68	4.0720	4.0723	-0.8460	25.06	-0.12	-0.050			
0.0871	5574.21	4.0710	4.0709	-0.8587	25.08	-0.10	-0.050			
0.0879	5626.93	4.0700	4.0702	-0.8535	25.10	-0.08	-0.050			
0.0888	5681.60	4.0690	4.0692	-0.8558	25.11	-0.07	-0.050			
0.0896	5736.19	4.0680	4.0677	-0.8549	25.13	-0.05	-0.050			
0.0905	5790.22	4.0670	4.0672	-0.8544	25.15	-0.03	-0.050			
0.0913	5845.52	4.0660	4.0663	-0.8563	25.17	-0.01	-0.050			
0.0922	5900.35	4.0650	4.0647	-0.8571	25.19	0.01	-0.050			
0.0930	5955.13	4.0640	4.0642	-0.8580	25.21	0.03	-0.050			
0.0939	6010.83	4.0630	4.0626	-0.8585	25.22	0.04	-0.050			
0.0948	6065.93	4.0620	4.0620	-0.8588	25.23	0.05	-0.050			
0.0956	6120.50	4.0610	4.0611	-0.8565	25.25	0.07	-0.050			
0.0965	6175.63	4.0600	4.0598	-0.8566	25.26	0.08	-0.050			
0.0974	6230.74	4.0590	4.0593	-0.8573	25.27	0.09	-0.050			
0.0982	6286.01	4.0580	4.0580	-0.8572	25.29	0.11	-0.050			
0.0991	6340.61	4.0570	4.0570	-0.8588	25.30	0.12	-0.050			
0.0999	6395.09	4.0560	4.0560	-0.8596	25.32	0.14	-0.050			
0.1008	6450.27	4.0550	4.0547	-0.8608	25.32	0.14	-0.050			
0.1016	6505.44	4.0540	4.0540	-0.8593	25.34	0.16	-0.050			
0.1025	6560.09	4.0530	4.0529	-0.8598	25.34	0.16	-0.050			
0.1033	6614.31	4.0520	4.0519	-0.8592	25.36	0.18	-0.050			
0.1042	6669.47	4.0510	4.0511	-0.8598	25.36	0.18	-0.050			
0.1051	6724.33	4.0500	4.0501	-0.8596	25.38	0.20	-0.050			
0.1059	6779.22	4.0490	4.0487	-0.8610	25.40	0.22	-0.050			
0.1068	6833.88	4.0480	4.0482	-0.8617	25.39	0.21	-0.050			
0.1076	6889.12	4.0470	4.0468	-0.8620	25.39	0.21	-0.050			
0.1085	6944.15	4.0460	4.0462	-0.8634	25.40	0.22	-0.050			
0.1094	6999.44	4.0450	4.0451	-0.8659	25.40	0.22	-0.050			
0.1103	7056.12	4.0440	4.0435	-0.8674	25.40	0.22	-0.050			
0.1111	7112.44	4.0430	4.0433	-0.8667	25.40	0.22	-0.050			
0.1120	7167.92	4.0420	4.0420	-0.8685	25.39	0.21	-0.050			
0.1129	7223.54	4.0410	4.0411	-0.8683	25.40	0.22	-0.050			
0.1137	7279.03	4.0400	4.0401	-0.8697	25.39	0.21	-0.050			
0.1146	7334.49	4.0390	4.0387	-0.8721	25.39	0.21	-0.050			
0.1154	7388.44	4.0380	4.0382	-0.8782	25.39	0.21	-0.050			
0.1163	7441.50	4.0370	4.0372	-0.8872	25.38	0.20	-0.050			
0.1171	7495.67	4.0360	4.0358	-0.9010	25.37	0.19	-0.050			
0.1180	7552.55	4.0350	4.0353	-0.9133	25.35	0.17	-0.050			
0.1189	7609.95	4.0340	4.0338	-0.9256	25.34	0.16	-0.050			
0.1198	7668.60	4.0330	4.0331	-0.9385	25.33	0.15	-0.050	0.660	0.822	
0.1208	7728.72	4.0320	4.0321	-0.9497	25.30	0.12	-0.050			
0.1217	7790.88	4.0310	4.0311	-0.9616	25.28	0.10	-0.050			
0.1227	7854.00	4.0300	4.0296	-0.9724	25.27	0.09	-0.050			
0.1237	7917.63	4.0290	4.0287	-0.9813	25.24	0.06	-0.050			
0.1247	7982.83	4.0280	4.0282	-0.9854	25.21	0.03	-0.050			
0.1258	8048.73	4.0270	4.0273	-0.9897	25.20	0.02	-0.050			
0.1268	8115.01	4.0260	4.0264	-0.9952	25.18	-0.00	-0.050			
0.1278	8180.82	4.0250	4.0250	-0.9963	25.15	-0.03	-0.050			
0.1289	8250.04	4.0240	4.0241	-0.9955	25.13	-0.05	-0.050			
0.1300	8317.82	4.0230	4.0231	-0.9829	25.10	-0.08	-0.050			
0.1310	8383.44	4.0220	4.0220	-0.9741	25.09	-0.09	-0.050			
0.1320	8448.79	4.0210	4.0208	-0.9522	25.07	-0.11	-0.050			
0.1330	8510.32	4.0200	4.0200	-0.9306	25.06	-0.12	-0.050			
0.1339	8569.24	4.0190	4.0189	-0.9135	25.05	-0.13	-0.050			
0.1348	8626.39	4.0180	4.0180	-0.8940	25.04	-0.14	-0.050			
0.1356	8677.57	4.0170	4.0172	-0.8724	25.03	-0.15	-0.050			
0.1364	8731.61	4.0160	4.0162	-0.8612	25.02	-0.16	-0.050			
0.1373	8785.36	4.0150	4.0152	-0.8513	25.02	-0.16	-0.050			
0.1381	8835.55	4.0140	4.0144	-0.8459	25.01	-0.17	-0.050			
0.1389	8887.26	4.0130	4.0132	-0.8409	24.99	-0.19	-0.050			
0.1396	8936.65	4.0120	4.0116	-0.8391	24.98	-0.20	-0.050			
0.1404	8987.73	4.0110	4.0107	-0.8419	24.98	-0.20	-0.050	0.606	0.829	
0.1412	9038.38	4.0100	4.0098	-0.8412	24.98	-0.20	-0.050			
0.1421	9091.46	4.0090	4.0090	-0.8461	24.98	-0.20	-0.050			
0.1429	9144.27	4.0080	4.0079	-0.8482	24.97	-0.21	-0.050			
0.1437	9197.48	4.0070	4.0071	-0.8541	24.97	-0.21	-0.050			
0.1446	9253.57	4.0060	4.0059	-0.8626	24.98	-0.20	-0.050			
0.1455	9309.81	4.0050	4.0050	-0.8722	24.97	-0.21	-0.050			
0.1464	9368.33	4.0040	4.0040	-0.8838	24.98	-0.20	-0.050			
0.1473	9427.87	4.0030	4.0031	-0.8972	24.98	-0.20	-0.050			
0.1482	9485.58	4.0020	4.0020	-0.9005	24.98	-0.20	-0.050			
0.1491	9545.46	4.0010	4.0011	-0.9070	24.98	-0.20	-0.050			
0.1501	9603.72	4.0000	4.0000	-0.9090	24.98	-0.20	-0.050			
0.1510	9661.67	3.9990	3.9989	-0.9085	24.98	-0.20	-0.050			
0.1519	9720.42	3.9980	3.9979	-0.9101	24.98	-0.20	-0.050			
0.1528	9778.70	3.9970	3.9970	-0.9111	24.98	-0.20	-0.050			
0.1537	9837.28	3.9960	3.9961	-0.9116	24.98	-0.20	-0.050			
0.1546	9895.30	3.9950	3.9949	-0.9116	24.97	-0.21	-0.050			
0.1555	9953.48	3.9940	3.9941	-0.9131	24.97	-0.21	-0.050			
0.1564	10012.28	3.9930	3.9930	-0.9135	24.98	-0.20	-0.050			
0.1573	10070.39	3.9920	3.9920	-0.9148	24.98	-0.20	-0.050			
0.1583	10128.75	3.9910	3.9910	-0.9158	25.00	-0.18	-0.050			
0.1592	10187.98	3.9900	3.9901	-0.9174	25.00	-0.18	-0.050			
0.1601	10246.82	3.9890	3.9890	-0.9174	25.02	-0.16	-0.050	0.618	0.777	
0.1610	10305.85	3.9880	3.9879	-0.9186	25.02	-0.16	-0.050			
0.1619	10364.41	3.9870	3.9870	-0.9181	25.04	-0.14	-0.050			
0.1629	10423.33	3.9860	3.9860	-0.9196	25.05	-0.13	-0.050			
0.1638	10482.31	3.9850	3.9851	-0.9193	25.06	-0.12	-0.050			
0.1647	10541.16	3.9840	3.9840	-0.9184	25.07	-0.11	-0.050			
0.1656	10599.93	3.9830	3.9830	-0.9191	25.08	-0.10	-0.050			
0.1665	10658.83	3.9820	3.9818	-0.9187	25.09	-0.09	-0.050			
0.1675	10717.53	3.9810	3.9812	-0.9191	25.10	-0.08	-0.050			
0.1684	10776.40	3.9800	3.9799	-0.9202	25.11	-0.07	-0.050			
0.1693	10835.26	3.9790	3.9789	-0.9206	25.10	-0.08	-0.050			
0.1702	10894.19	3.9780	3.9780	-0.9217	25.12	-0.06	-0.050			
0.1711	10953.17	3.9770	3.9772	-0.9209	25.12	-0.06	-0.050			
0.1721	11011.67	3.9760	3.9759	-0.9219	25.13	-0.05	-0.050			
0.1730	11070.43	3.9750	3.9750	-0.9245	25.14	-0.04	-0.050			
0.1739	11128.92	3.9740	3.9739	-0.9247	25.15	-0.03	-0.050			
0.1748	11188.38	3.9730	3.9729	-0.9266	25.16	-0.02	-0.050			
0.1757	11247.33	3.9720	3.9720	-0.9274	25.18	-0.00	-0.050			
0.1767	11306.78	3.9710	3.9711	-0.9294	25.18	0.00	-0.050			
0.1776	11366.43	3.9700	3.9701	-0.9321	25.19	0.01	-0.050			
0.1785	11426.13	3.9690	3.9689	-0.9342	25.20	0.02	-0.050			
0.1794	11481.90	3.9680	3.9682	-0.9484	25.21	0.03	-0.050			
0.1803	11541.03	3.9670	3.9673	-0.9599	25.22	0.04	-0.050	0.511	0.711	
0.1813	11601.30	3.9660	3.9661	-0.9714	25.22	0.04	-0.050			
0.1822	11662.55	3.9650	3.9650	-0.9825	25.23	0.05	-0.050			
0.1832	11725.81	3.9640	3.9640	-0.9935	25.24	0.06	-0.050			
0.1842	11790.64	3.9630	3.9629	-0.9998	25.25	0.07	-0.050			
0.1852	11855.84	3.9620	3.9618	-1.0089	25.26	0.08	-0.050			
0.1864	11928.54	3.9610	3.9606	-0.9995	25.27	0.09	-0.050			
0.1874	11993.28	3.9600	3.9596	-1.0027	25.28	0.10	-0.050			
0.1885	12066.24	3.9590	3.9584	-0.9763	25.30	0.12	-0.050			
0.1896	12131.43	3.9580	3.9580	-0.9531	25.30	0.12	-0.050			
0.1906	12196.86	3.9570	3.9573	-0.9373	25.32	0.14	-0.050			
0.1915	12257.20	3.9560	3.9563	-0.9145	25.33	0.15	-0.050			
0.1925	12317.87	3.9550	3.9554	-0.9051	25.33	0.15	-0.050			
0.1934	12375.53	3.9540	3.9544	-0.8862	25.34	0.16	-0.050			
0.1942	12430.83	3.9530	3.9535	-0.8799	25.32	0.14	-0.050			
0.1951	12484.11	3.9520	3.9527	-0.8620	25.32	0.14	-0.050			
0.1958	12531.48	3.9510	3.9519	-0.8547	25.32	0.14	-0.050			
0.1966	12581.06	3.9500	3.9484	-0.8447	25.30	0.12	-0.050			
0.1973	12624.40	3.9490	3.9481	-0.8402	25.29	0.11	-0.050			
0.1980	12670.61	3.9480	3.9476	-0.8320	25.28	0.10	-0.050			
0.1987	12717.08	3.9470	3.9467	-0.8227	25.26	0.08	-0.050			
0.1995	12769.71	3.9460	3.9455	-0.8339	25.24	0.06	-0.050			
0.2003	12822.16	3.9450	3.9449	-0.8425	25.22	0.04	-0.050	-1.060	0.916	
0.2012	12876.53	3.9440	3.9441	-0.8610	25.21	0.03	-0.050			
0.2021	12933.76	3.9430	3.9430	-0.8770	25.19	0.01	-0.050			
0.2030	12992.23	3.9420	3.9423	-0.8991	25.17	-0.01	-0.050			
0.2040	13055.73	3.9410	3.9408	-0.9191	25.16	-0.02	-0.050			
0.2049	13115.78	3.9400	3.9406	-0.9275	25.13	-0.05	-0.050			
0.2060	13183.49	3.9390	3.9390	-0.9500	25.12	-0.06	-0.050			
0.2070	13246.47	3.9380	3.9378	-0.9575	25.09	-0.09	-0.050			
0.2079	13306.73	3.9370	3.9369	-0.9553	25.07	-0.11	-0.050			
0.2089	13367.37	3.9360	3.9359	-0.9568	25.05	-0.13	-0.050			
0.2098	13427.61	3.9350	3.9351	-0.9559	25.04	-0.14	-0.050			
0.2108	13488.81	3.9340	3.9340	-0.9548	25.02	-0.16	-0.050			
0.2117	13549.07	3.9330	3.9332	-0.9555	25.01	-0.17	-0.050			
0.2127	13609.84	3.9320	3.9321	-0.9586	25.00	-0.18	-0.050			
0.2136	13671.80	3.9310	3.9312	-0.9616	25.01	-0.17	-0.050			
0.2146	13733.30	3.9300	3.9298	-0.9650	25.01	-0.17	-0.050			
0.2156	13795.99	3.9290	3.9291	-0.9696	25.02	-0.16	-0.050			
0.2165	13858.87	3.9280	3.9279	-0.9724	25.04	-0.14	-0.050			
0.2175	13922.24	3.9270	3.9270	-0.9736	25.04	-0.14	-0.050			
0.2185	13984.63	3.9260	3.9261	-0.9715	25.07	-0.11	-0.050			
0.2195	14046.73	3.9250	3.9250	-0.9714	25.10	-0.08	-0.050			
0.2205	14108.85	3.9240	3.9239	-0.9709	25.11	-0.07	-0.050			
0.2214	14171.76	3.9230	3.9228	-0.9717	25.14	-0.04	-0.050			
0.2224	14234.12	3.9220	3.9222	-0.9724	25.16	-0.02	-0.050			
0.2234	14296.68	3.9210	3.9209	-0.9734	25.18	0.00	-0.050			
0.2243	14357.93	3.9200	3.9200	-0.9720	25.20	0.02	-0.050			
0.2253	14420.09	3.9190	3.9189	-0.9730	25.21	0.03	-0.050			
0.2263	14482.17	3.9180	3.9183	-0.9727	25.22	0.04	-0.050			
0.2273	14544.63	3.9170	3.9172	-0.9749	25.25	0.07	-0.050			
0.2282	14606.05	3.9160	3.9157	-0.9765	25.25	0.07	-0.050			
0.2292	14668.13	3.9150	3.9153	-0.9812	25.27	0.09	-0.050			
0.2302	14730.23	3.9140	3.9138	-0.9846	25.28	0.10	-0.050			
0.2311	14793.05	3.9130	3.9133	-0.9853	25.30	0.12	-0.050			
0.2321	14856.11	3.9120	3.9117	-0.9857	25.31	0.13	-0.050			
0.2331	14920.42	3.9110	3.9110	-0.9851	25.32	0.14	-0.050			
0.2341	14982.78	3.9100	3.9099	-0.9914	25.34	0.16	-0.050			
0.2350	15041.71	3.9090	3.9094	-1.0125	25.35	0.17	-0.050			
0.2360	15104.54	3.9080	3.9081	-1.0290	25.36	0.18	-0.050			
0.2370	15168.47	3.9070	3.9070	-1.0454	25.38	0.20	-0.050			
0.2381	15235.38	3.9060	3.9063	-1.0624	25.39	0.21	-0.050			
0.2391	15302.45	3.9050	3.9051	-1.0760	25.40	0.22	-0.050			
0.2402	15373.55	3.9040	3.9040	-1.0900	25.40	0.22	-0.050	0.960	1.306	
0.2413	15444.66	3.9030	3.9028	-1.1009	25.40	0.22	-0.050			
0.2425	15517.29	3.9020	3.9018	-1.1091	25.40	0.22	-0.050			
0.2436	15591.01	3.9010	3.9006	-1.1170	25.40	0.22	-0.050			
0.2448	15665.83	3.9000	3.9001	-1.1209	25.40	0.22	-0.050			
0.2459	15739.73	3.8990	3.8993	-1.1238	25.39	0.21	-0.050			
0.2471	15816.91	3.8980	3.8982	-1.1202	25.39	0.21	-0.050			
0.2483	15893.27	3.8970	3.8972	-1.1057	25.37	0.19	-0.050			
0.2495	15966.71	3.8960	3.8962	-1.0999	25.36	0.18	-0.050			
0.2507	16043.15	3.8950	3.8951	-1.0776	25.34	0.16	-0.050			
0.2518	16115.90	3.8940	3.8940	-1.0644	25.31	0.13	-0.050			
0.2529	16185.12	3.8930	3.8929	-1.0407	25.28	0.10	-0.050			
0.2539	16250.82	3.8920	3.8920	-1.0208	25.26	0.08	-0.050			
0.2549	16314.19	3.8910	3.8911	-0.9948	25.23	0.05	-0.050			
0.2558	16370.66	3.8900	3.8902	-0.9717	25.20	0.02	-0.050			
0.2567	16426.48	3.8890	3.8893	-0.9476	25.18	0.00	-0.050			
0.2575	16482.73	3.8880	3.8883	-0.9404	25.14	-0.04	-0.050			
0.2584	16537.84	3.8870	3.8874	-0.9334	25.12	-0.06	-0.050			
0.2593	16593.90	3.8860	3.8856	-0.9277	25.10	-0.08	-0.050			
0.2602	16650.56	3.8850	3.8846	-0.9304	25.07	-0.11	-0.050			
0.2611	16707.32	3.8840	3.8839	-0.9295	25.06	-0.12	-0.050			
0.2620	16765.16	3.8830	3.8828	-0.9372	25.04	-0.14	-0.050			
0.2629	16823.27	3.8820	3.8820	-0.9388	25.04	-0.14	-0.050			
0.2638	16882.13	3.8810	3.8810	-0.9462	25.04	-0.14	-0.050			
0.2647	16943.52	3.8800	3.8801	-0.9559	25.02	-0.16	-0.050			
0.2657	17006.30	3.8790	3.8790	-0.9679	25.01	-0.17	-0.050			
0.2667	17071.21	3.8780	3.8781	-0.9847	25.00	-0.18	-0.050			
0.2678	17137.70	3.8770	3.8769	-0.9978	25.00	-0.18	-0.050			
0.2688	17202.24	3.8760	3.8759	-1.0007	25.00	-0.18	-0.050			
0.2698	17269.35	3.8750	3.8751	-1.0060	25.00	-0.18	-0.050			
0.2708	17333.53	3.8740	3.8738	-1.0057	25.00	-0.18	-0.050			
0.2718	17398.14	3.8730	3.8731	-1.0074	25.00	-0.18	-0.050			
0.2729	17462.71	3.8720	3.8721	-1.0092	24.99	-0.19	-0.050			
0.2739	17527.87	3.8710	3.8711	-1.0088	25.00	-0.18	-0.050			
0.2749	17592.38	3.8700	3.8700	-1.0089	25.00	-0.18	-0.050			
0.2759	17657.23	3.8690	3.8690	-1.0086	24.99	-0.19	-0.050			
0.2769	17721.95	3.8680	3.8681	-1.0084	24.98	-0.20	-0.050			
0.2779	17786.47	3.8670	3.8670	-1.0085	25.00	-0.18	-0.050			
0.2789	17850.49	3.8660	3.8658	-1.0089	25.00	-0.18	-0.050			
0.2799	17915.07	3.8650	3.8651	-1.0094	25.00	-0.18	-0.050	0.798	0.938	
0.2809	17979.21	3.8640	3.8638	-1.0107	24.99	-0.19	-0.050			
0.2819	18043.36	3.8630	3.8630	-1.0112	24.98	-0.20	-0.050			
0.2829	18108.00	3.8620	3.8620	-1.0133	24.98	-0.20	-0.050			
0.2840	18173.01	3.8610	3.8607	-1.0145	24.97	-0.21	-0.050			
0.2850	18237.62	3.8600	3.8601	-1.0144	24.96	-0.22	-0.050			
0.2860	18302.32	3.8590	3.8589	-1.0162	24.96	-0.22	-0.050			
0.2870	18367.39	3.8580	3.8580	-1.0192	24.97	-0.21	-0.050			
0.2880	18432.99	3.8570	3.8571	-1.0212	24.98	-0.20	-0.050			
0.2890	18498.64	3.8560	3.8559	-1.0223	25.00	-0.18	-0.050			
0.2901	18564.30	3.8550	3.8550	-1.0240	25.00	-0.18	-0.050			
0.2911	18629.84	3.8540	3.8542	-1.0252	25.02	-0.16	-0.050			
0.2921	18695.41	3.8530	3.8528	-1.0265	25.02	-0.16	-0.050			
0.2932	18761.96	3.8520	3.8520	-1.0269	25.04	-0.14	-0.050			
0.2942	18828.28	3.8510	3.8513	-1.0268	25.06	-0.12	-0.050			
0.2952	18894.03	3.8500	3.8498	-1.0283	25.06	-0.12	-0.050			
0.2963	18960.16	3.8490	3.8490	-1.0293	25.07	-0.11	-0.050			
0.2973	19026.20	3.8480	3.8480	-1.0290	25.09	-0.09	-0.050			
0.2983	19089.41	3.8470	3.8469	-1.0374	25.10	-0.08	-0.050			
0.2993	19152.09	3.8460	3.8461	-1.0505	25.10	-0.08	-0.050			
0.3003	19217.20	3.8450	3.8450	-1.0654	25.12	-0.06	-0.050			
0.3013	19283.99	3.8440	3.8441	-1.0752	25.14	-0.04	-0.050			
0.3024	19352.48	3.8430	3.8431	-1.0858	25.14	-0.04	-0.050			
0.3035	19423.52	3.8420	3.8420	-1.0958	25.15	-0.03	-0.050			
0.3046	19495.52	3.8410	3.8405	-1.1018	25.16	-0.02	-0.050			
0.3059	19577.28	3.8400	3.8396	-1.0881	25.18	0.00	-0.050			
0.3070	19647.91	3.8390	3.8385	-1.0900	25.19	0.01	-0.050			
0.3081	19719.46	3.8380	3.8375	-1.0914	25.21	0.03	-0.050			
0.3093	19796.67	3.8370	3.8374	-1.0438	25.22	0.04	-0.050			
0.3104	19867.76	3.8360	3.8363	-1.0228	25.22	0.04	-0.050			
0.3115	19936.36	3.8350	3.8353	-1.0055	25.24	0.06	-0.050			
0.3125	20001.12	3.8340	3.8343	-0.9848	25.25	0.07	-0.050			
0.3135	20064.98	3.8330	3.8333	-0.9744	25.26	0.08	-0.050			
0.3145	20125.69	3.8320	3.8325	-0.9636	25.26	0.08	-0.050			
0.3154	20184.19	3.8310	3.8316	-0.9421	25.27	0.09	-0.050			
0.3162	20236.05	3.8300	3.8308	-0.9292	25.27	0.09	-0.050			
0.3170	20285.23	3.8290	3.8301	-0.9196	25.28	0.10	-0.050			
0.3178	20338.25	3.8280	3.8271	-0.9147	25.28	0.10	-0.050			
0.3185	20384.15	3.8270	3.8264	-0.9022	25.28	0.10	-0.050			
0.3193	20436.66	3.8260	3.8257	-0.9059	25.28	0.10	-0.050			
0.3202	20491.17	3.8250	3.8247	-0.9168	25.29	0.11	-0.050			
0.3211	20549.00	3.8240	3.8239	-0.9285	25.31	0.13	-0.050			
0.3220	20610.27	3.8230	3.8230	-0.9465	25.31	0.13	-0.050			
0.3230	20671.75	3.8220	3.8224	-0.9666	25.32	0.14	-0.050			
0.3240	20738.31	3.8210	3.8209	-0.9929	25.33	0.15	-0.050			
0.3251	20808.74	3.8200	3.8198	-1.0191	25.34	0.16	-0.050			
0.3262	20875.29	3.8190	3.8193	-1.0283	25.36	0.18	-0.050			
0.3272	20942.90	3.8180	3.8181	-1.0322	25.36	0.18	-0.050			
0.3284	21019.46	3.8170	3.8170	-1.0531	25.36	0.18	-0.050			
0.3295	21085.17	3.8160	3.8160	-1.0570	25.33	0.15	-0.050			
0.3305	21153.26	3.8150	3.8152	-1.0565	25.31	0.13	-0.050			
0.3316	21221.31	3.8140	3.8140	-1.0535	25.28	0.10	-0.050			
0.3326	21288.20	3.8130	3.8129	-1.0485	25.26	0.08	-0.050			
0.3337	21356.53	3.8120	3.8121	-1.0474	25.23	0.05	-0.050			
0.3348	21424.15	3.8110	3.8110	-1.0446	25.21	0.03	-0.050			
0.3358	21491.62	3.8100	3.8097	-1.0412	25.20	0.02	-0.050			
0.3368	21558.36	3.8090	3.8090	-1.0358	25.17	-0.01	-0.050			
0.3379	21624.65	3.8080	3.8079	-1.0316	25.15	-0.03	-0.050			
0.3389	21690.70	3.8070	3.8068	-1.0304	25.13	-0.05	-0.050			
0.3399	21755.06	3.8060	3.8066	-1.0313	25.10	-0.08	-0.050	0.845	0.913	
0.3409	21818.83	3.8050	3.8051	-1.0383	25.08	-0.10	-0.050			
0.3419	21883.13	3.8040	3.8039	-1.0437	25.07	-0.11	-0.050			
0.3429	21948.35	3.8030	3.8033	-1.0482	25.06	-0.12	-0.050			
0.3440	22014.88	3.8020	3.8017	-1.0541	25.06	-0.12	-0.050			
0.3450	22082.22	3.8010	3.8009	-1.0576	25.06	-0.12	-0.050			
0.3461	22150.70	3.8000	3.8001	-1.0604	25.07	-0.11	-0.050			
0.3472	22219.09	3.7990	3.7988	-1.0637	25.08	-0.10	-0.050			
0.3483	22289.11	3.7980	3.7975	-1.0583	25.10	-0.08	-0.050			
0.3493	22357.43	3.7970	3.7969	-1.0549	25.10	-0.08	-0.050			
0.3504	22426.92	3.7960	3.7961	-1.0514	25.13	-0.05	-0.050			
0.3515	22497.56	3.7950	3.7951	-1.0546	25.16	-0.02	-0.050			
0.3526	22567.18	3.7940	3.7941	-1.0491	25.17	-0.01	-0.050			
0.3537	22636.39	3.7930	3.7932	-1.0438	25.19	0.01	-0.050			
0.3547	22703.63	3.7920	3.7922	-1.0451	25.21	0.03	-0.050			
0.3558	22769.39	3.7910	3.7911	-1.0423	25.23	0.05	-0.050			
0.3568	22836.38	3.7900	3.7902	-1.0371	25.24	0.06	-0.050			
0.3579	22902.43	3.7890	3.7891	-1.0285	25.25	0.07	-0.050			
0.3589	22967.12	3.7880	3.7879	-1.0189	25.27	0.09	-0.050			
0.3598	23029.92	3.7870	3.7868	-1.0079	25.29	0.11	-0.050	0.695	0.760	
0.3608	23092.01	3.7860	3.7858	-0.9958	25.30	0.12	-0.050			
0.3618	23153.52	3.7850	3.7849	-0.9879	25.31	0.13	-0.050			
0.3628	23217.19	3.7840	3.7836	-0.9820	25.32	0.14	-0.050			
0.3638	23280.54	3.7830	3.7828	-0.9766	25.33	0.15	-0.050			
0.3647	23343.59	3.7820	3.7821	-0.9708	25.32	0.14	-0.050			
0.3657	23407.25	3.7810	3.7814	-0.9644	25.30	0.12	-0.050			
0.3667	23470.18	3.7800	3.7802	-0.9600	25.30	0.12	-0.050			
0.3677	23532.78	3.7790	3.7791	-0.9531	25.31	0.13	-0.050			
0.3687	23596.06	3.7780	3.7778	-0.9464	25.30	0.12	-0.050			
0.3696	23657.20	3.7770	3.7770	-0.9343	25.30	0.12	-0.050			
0.3706	23718.14	3.7760	3.7759	-0.9179	25.30	0.12	-0.050			
0.3715	23777.55	3.7750	3.7751	-0.8981	25.30	0.12	-0.050			
0.3724	23835.82	3.7740	3.7740	-0.8772	25.30	0.12	-0.050			
0.3733	23891.55	3.7730	3.7730	-0.8559	25.30	0.12	-0.050			
0.3741	23943.44	3.7720	3.7719	-0.8294	25.28	0.10	-0.050			
0.3749	23996.02	3.7710	3.7711	-0.8177	25.28	0.10	-0.050			
0.3757	24047.95	3.7700	3.7701	-0.8047	25.29	0.11	-0.050			
0.3765	24098.29	3.7690	3.7692	-0.7922	25.28	0.10	-0.050			
0.3773	24146.30	3.7680	3.7682	-0.7839	25.28	0.10	-0.050			
0.3780	24194.33	3.7670	3.7673	-0.7722	25.28	0.10	-0.050			
0.3788	24241.26	3.7660	3.7664	-0.7611	25.27	0.09	-0.050			
0.3795	24288.17	3.7650	3.7646	-0.7524	25.25	0.07	-0.050			
0.3802	24334.40	3.7640	3.7636	-0.7441	25.24	0.06	-0.050	0.516	0.914	
0.3809	24380.68	3.7630	3.7628	-0.7398	25.24	0.06	-0.050			
0.3817	24426.75	3.7620	3.7617	-0.7365	25.22	0.04	-0.050			
0.3824	24471.82	3.7610	3.7609	-0.7304	25.20	0.02	-0.050			
0.3831	24517.98	3.7600	3.7600	-0.7282	25.19	0.01	-0.050			
0.3838	24564.32	3.7590	3.7591	-0.7279	25.18	0.00	-0.050			
0.3845	24611.16	3.7580	3.7582	-0.7282	25.17	-0.01	-0.050			
0.3853	24658.56	3.7570	3.7571	-0.7302	25.14	-0.04	-0.050			
0.3860	24706.35	3.7560	3.7561	-0.7334	25.13	-0.05	-0.050			
0.3868	24755.03	3.7550	3.7549	-0.7365	25.12	-0.06	-0.050			
0.3875	24802.51	3.7540	3.7538	-0.7371	25.11	-0.07	-0.050			
0.3883	24849.53	3.7530	3.7530	-0.7361	25.08	-0.10	-0.050			
0.3890	24895.99	3.7520	3.7519	-0.7335	25.06	-0.12	-0.050			
0.3897	24941.56	3.7510	3.7510	-0.7304	25.05	-0.13	-0.050			
0.3904	24987.68	3.7500	3.7501	-0.7307	25.03	-0.15	-0.050			
0.3912	25033.71	3.7490	3.7491	-0.7312	25.01	-0.17	-0.050			
0.3919	25079.84	3.7480	3.7479	-0.7316	25.00	-0.18	-0.050			
0.3926	25127.20	3.7470	3.7469	-0.7331	25.00	-0.18	-0.050			
0.3933	25173.64	3.7460	3.7460	-0.7370	24.98	-0.20	-0.050			
0.3941	25220.65	3.7450	3.7450	-0.7403	24.98	-0.20	-0.050			
0.3948	25267.63	3.7440	3.7440	-0.7445	24.97	-0.21	-0.050			
0.3955	25314.97	3.7430	3.7431	-0.7486	24.96	-0.22	-0.050			
0.3963	25361.98	3.7420	3.7419	-0.7534	24.95	-0.23	-0.050			
0.3970	25410.44	3.7410	3.7410	-0.7580	24.94	-0.24	-0.050			
0.3978	25458.63	3.7400	3.7397	-0.7645	24.93	-0.25	-0.050			
0.3985	25507.15	3.7390	3.7390	-0.7723	24.92	-0.26	-0.050			
0.3993	25556.31	3.7380	3.7380	-0.7794	24.92	-0.26	-0.050			
0.4001	25605.84	3.7370	3.7369	-0.7881	24.92	-0.26	-0.050			
0.4009	25655.69	3.7360	3.7360	-0.7950	24.90	-0.28	-0.050			
0.4017	25706.90	3.7350	3.7351	-0.8046	24.91	-0.27	-0.050			
0.4025	25758.12	3.7340	3.7341	-0.8151	24.90	-0.28	-0.050			
0.4033	25809.78	3.7330	3.7330	-0.8265	24.90	-0.28	-0.050			
0.4041	25863.16	3.7320	3.7320	-0.8375	24.90	-0.28	-0.050			
0.4049	25916.15	3.7310	3.7309	-0.8523	24.90	-0.28	-0.050			
0.4058	25969.92	3.7300	3.7301	-0.8662	24.88	-0.30	-0.050			
0.4066	26025.18	3.7290	3.7290	-0.8803	24.90	-0.28	-0.050			
0.4075	26081.69	3.7280	3.7279	-0.8960	24.88	-0.30	-0.050			
0.4084	26139.53	3.7270	3.7270	-0.9117	24.89	-0.29	-0.050			
0.4093	26197.61	3.7260	3.7261	-0.9257	24.89	-0.29	-0.050			
0.4103	26257.47	3.7250	3.7249	-0.9413	24.88	-0.30	-0.050			
0.4112	26318.03	3.7240	3.7239	-0.9585	24.88	-0.30	-0.050			
0.4122	26379.59	3.7230	3.7229	-0.9758	24.88	-0.30	-0.050			
0.4132	26442.81	3.7220	3.7218	-0.9932	24.88	-0.30	-0.050			
0.4142	26507.05	3.7210	3.7211	-1.0103	24.88	-0.30	-0.050			
0.4152	26572.46	3.7200	3.7200	-1.0281	24.87	-0.31	-0.050			
0.4162	26638.69	3.7190	3.7191	-1.0449	24.87	-0.31	-0.050			
0.4173	26705.75	3.7180	3.7181	-1.0637	24.87	-0.31	-0.050			
0.4183	26769.42	3.7170	3.7171	-1.0992	24.86	-0.32	-0.050			
0.4193	26838.11	3.7160	3.7161	-1.1297	24.86	-0.32	-0.050			
0.4205	26909.22	3.7150	3.7152	-1.1571	24.87	-0.31	-0.050	0.440	0.723	
0.4216	26983.64	3.7140	3.7140	-1.1865	24.88	-0.30	-0.050			
0.4228	27059.89	3.7130	3.7129	-1.2130	24.89	-0.29	-0.050			
0.4242	27146.55	3.7120	3.7119	-1.2278	24.92	-0.26	-0.050			
0.4254	27225.77	3.7110	3.7107	-1.2518	24.93	-0.25	-0.050			
0.4267	27311.80	3.7100	3.7095	-1.2622	24.94	-0.24	-0.050			
0.4281	27398.60	3.7090	3.7087	-1.2587	24.96	-0.22	-0.050			
0.4294	27483.20	3.7080	3.7076	-1.2669	24.99	-0.19	-0.050			
0.4307	27567.03	3.7070	3.7072	-1.2776	25.01	-0.17	-0.050			
0.4320	27649.34	3.7060	3.7064	-1.2837	25.02	-0.16	-0.050			
0.4333	27731.41	3.7050	3.7054	-1.2973	25.02	-0.16	-0.050			
0.4346	27813.75	3.7040	3.7043	-1.3068	25.03	-0.15	-0.050			
0.4359	27895.07	3.7030	3.7034	-1.3195	25.04	-0.14	-0.050			
0.4371	27977.15	3.7020	3.7025	-1.3298	25.03	-0.15	-0.050			
0.4384	28059.98	3.7010	3.7003	-1.3417	25.04	-0.14	-0.050			
0.4397	28139.81	3.7000	3.6996	-1.3590	25.04	-0.14	-0.050			
0.4410	28222.88	3.6990	3.6985	-1.3730	25.04	-0.14	-0.050	0.732	0.762	
0.4423	28306.37	3.6980	3.6981	-1.3913	25.06	-0.12	-0.050			
0.4436	28389.92	3.6970	3.6970	-1.4032	25.08	-0.10	-0.050			
0.4450	28481.56	3.6960	3.6959	-1.4280	25.10	-0.08	-0.050			
0.4465	28574.47	3.6950	3.6949	-1.4591	25.12	-0.06	-0.050			
0.4480	28669.64	3.6940	3.6941	-1.4927	25.13	-0.05	-0.050			
0.4495	28767.41	3.6930	3.6930	-1.5309	25.16	-0.02	-0.050			
0.4511	28872.03	3.6920	3.6920	-1.5807	25.18	0.00	-0.050			
0.4527	28974.37	3.6910	3.6909	-1.6068	25.20	0.02	-0.050			
0.4544	29082.49	3.6900	3.6901	-1.6402	25.21	0.03	-0.050			
0.4561	29187.70	3.6890	3.6891	-1.6591	25.22	0.04	-0.050			
0.4577	29294.01	3.6880	3.6878	-1.6785	25.23	0.05	-0.050			
0.4594	29402.87	3.6870	3.6870	-1.6989	25.24	0.06	-0.050			
0.4611	29512.31	3.6860	3.6860	-1.7177	25.22	0.04	-0.050	0.505	0.716	
0.4629	29623.15	3.6850	3.6851	-1.7386	25.19	0.01	-0.050			
0.4646	29735.51	3.6840	3.6840	-1.7593	25.15	-0.03	-0.050			
0.4664	29849.36	3.6830	3.6830	-1.7803	25.11	-0.07	-0.050			
0.4681	29958.12	3.6820	3.6820	-1.8228	25.07	-0.11	-0.050			
0.4699	30070.90	3.6810	3.6812	-1.8661	25.04	-0.14	-0.050			
0.4716	30184.67	3.6800	3.6802	-1.9080	25.00	-0.18	-0.050			
0.4735	30304.35	3.6790	3.6791	-1.9583	24.96	-0.22	-0.050			
0.4754	30428.29	3.6780	3.6781	-2.0046	24.94	-0.24	-0.050			
0.4776	30563.37	3.6770	3.6770	-2.0429	24.94	-0.24	-0.050			
0.4797	30701.15	3.6760	3.6759	-2.0668	24.94	-0.24	-0.050	0.758	0.805	
0.4819	30842.08	3.6750	3.6745	-2.0802	24.97	-0.21	-0.050			
0.4841	30982.40	3.6740	3.6736	-2.0892	25.00	-0.18	-0.050			
0.4863	31120.57	3.6730	3.6729	-2.1093	25.03	-0.15	-0.050			
0.4884	31259.68	3.6720	3.6722	-2.1235	25.06	-0.12	-0.050			
0.4906	31399.42	3.6710	3.6713	-2.1416	25.08	-0.10	-0.050			
0.4928	31540.23	3.6700	3.6704	-2.1577	25.11	-0.07	-0.050			
0.4950	31680.62	3.6690	3.6693	-2.1756	25.13	-0.05	-0.050			
0.4972	31820.83	3.6680	3.6684	-2.1890	25.14	-0.04	-0.050			
0.4994	31960.50	3.6670	3.6675	-2.1990	25.16	-0.02	-0.050	0.565	0.758	
0.5015	32098.64	3.6660	3.6658	-2.2063	25.16	-0.02	-0.050			
0.5037	32236.86	3.6650	3.6648	-2.2136	25.17	-0.01	-0.050			
0.5058	32371.68	3.6640	3.6637	-2.2254	25.17	-0.01	-0.050			
0.5079	32507.95	3.6630	3.6630	-2.2357	25.18	0.00	-0.050			
0.5100	32641.91	3.6620	3.6621	-2.2390	25.18	0.00	-0.050			
0.5122	32782.19	3.6610	3.6611	-2.2649	25.16	-0.02	-0.050			
0.5145	32925.99	3.6600	3.6600	-2.2991	25.14	-0.04	-0.050			
0.5168	33075.05	3.6590	3.6591	-2.3394	25.12	-0.06	-0.050			
0.5192	33229.02	3.6580	3.6580	-2.3896	25.08	-0.10	-0.050	-0.052	0.814	
0.5217	33388.75	3.6570	3.6569	-2.4444	25.03	-0.15	-0.050			
0.5241	33540.41	3.6560	3.6561	-2.4809	25.00	-0.18	-0.050			
0.5266	33703.85	3.6550	3.6550	-2.5478	24.98	-0.20	-0.050			
0.5291	33859.83	3.6540	3.6540	-2.6225	24.96	-0.22	-0.050			
0.5316	34024.39	3.6530	3.6532	-2.6924	24.94	-0.24	-0.050			
0.5346	34215.26	3.6520	3.6518	-2.6724	24.94	-0.24	-0.050			
0.5374	34393.56	3.6510	3.6510	-2.6837	24.93	-0.25	-0.050			
0.5402	34571.26	3.6500	3.6497	-2.6956	24.92	-0.26	-0.050			
0.5430	34749.94	3.6490	3.6489	-2.7170	24.92	-0.26	-0.050			
0.5457	34927.98	3.6480	3.6478	-2.7384	24.90	-0.28	-0.050			
0.5485	35106.54	3.6470	3.6470	-2.7529	24.92	-0.26	-0.050			
0.5513	35286.06	3.6460	3.6467	-2.7929	24.96	-0.22	-0.050			
0.5541	35462.50	3.6450	3.6457	-2.8128	24.98	-0.20	-0.050			
0.5569	35638.77	3.6440	3.6448	-2.8293	24.98	-0.20	-0.050			
0.5597	35818.13	3.6430	3.6425	-2.8408	25.00	-0.18	-0.050	0.613	0.743	
0.5625	35997.78	3.6420	3.6417	-2.8589	25.00	-0.18	-0.050			
0.5652	36170.37	3.6410	3.6407	-2.9092	25.04	-0.14	-0.050			
0.5679	36345.92	3.6400	3.6401	-2.9491	25.05	-0.13	-0.050			
0.5708	36529.77	3.6390	3.6389	-2.9878	25.09	-0.09	-0.050			
0.5737	36715.43	3.6380	3.6381	-3.0289	25.13	-0.05	-0.050			
0.5767	36909.63	3.6370	3.6371	-3.0834	25.16	-0.02	-0.050			
0.5799	37113.69	3.6360	3.6361	-3.1493	25.20	0.02	-0.050	0.778	1.038	
0.5834	37337.79	3.6350	3.6350	-3.2597	25.24	0.06	-0.050			
0.5866	37542.92	3.6340	3.6341	-3.3407	25.28	0.10	-0.050			
0.5898	37748.65	3.6330	3.6334	-3.4409	25.25	0.07	-0.050			
0.5932	37964.42	3.6320	3.6321	-3.5516	25.18	0.00	-0.050			
0.5970	38207.00	3.6310	3.6308	-3.5709	25.13	-0.05	-0.050			
0.6007	38447.96	3.6300	3.6296	-3.5624	25.07	-0.11	-0.050	0.453	0.686	
0.6044	38684.42	3.6290	3.6285	-3.5454	25.06	-0.12	-0.050			
0.6081	38921.31	3.6280	3.6280	-3.5486	25.12	-0.06	-0.050			
0.6118	39153.00	3.6270	3.6274	-3.5569	25.16	-0.02	-0.050			
0.6154	39385.64	3.6260	3.6265	-3.5826	25.20	0.02	-0.050			
0.6190	39616.08	3.6250	3.6254	-3.5590	25.22	0.04	-0.050	0.383	0.672	
0.6225	39840.89	3.6240	3.6238	-3.5065	25.24	0.06	-0.050			
0.6259	40060.07	3.6230	3.6226	-3.4558	25.26	0.08	-0.050			
0.6293	40274.23	3.6220	3.6219	-3.3836	25.28	0.10	-0.050			
0.6325	40477.27	3.6210	3.6209	-3.2890	25.26	0.08	-0.050			
0.6357	40685.93	3.6200	3.6200	-3.2517	25.25	0.07	-0.050			
0.6390	40893.29	3.6190	3.6190	-3.2330	25.20	0.02	-0.050			
0.6423	41105.28	3.6180	3.6182	-3.2394	25.14	-0.04	-0.050			
0.6457	41326.96	3.6170	3.6169	-3.2801	25.04	-0.14	-0.050			
0.6488	41525.93	3.6160	3.6161	-3.2904	24.99	-0.19	-0.050			
0.6520	41730.26	3.6150	3.6149	-3.2853	24.95	-0.23	-0.050			
0.6555	41953.26	3.6140	3.6139	-3.2182	24.91	-0.27	-0.050			
0.6590	42173.50	3.6130	3.6127	-3.1236	24.91	-0.27	-0.050	0.536	0.783	
0.6622	42379.50	3.6120	3.6118	-3.0369	24.90	-0.28	-0.050			
0.6652	42575.22	3.6110	3.6104	-2.9611	24.90	-0.28	-0.050			
0.6682	42765.67	3.6100	3.6099	-2.8925	24.90	-0.28	-0.050			
0.6710	42946.01	3.6090	3.6095	-2.8507	24.91	-0.27	-0.050			
0.6738	43121.93	3.6080	3.6088	-2.7762	24.90	-0.28	-0.050			
0.6763	43284.53	3.6070	3.6078	-2.6835	24.93	-0.25	-0.050			
0.6789	43451.33	3.6060	3.6069	-2.6020	24.96	-0.22	-0.050			
0.6814	43610.56	3.6050	3.6046	-2.5272	24.98	-0.20	-0.050	0.708	0.789	
0.6839	43770.07	3.6040	3.6035	-2.4576	25.02	-0.16	-0.050			
0.6862	43914.07	3.6030	3.6028	-2.3998	25.05	-0.13	-0.050			
0.6883	44053.50	3.6020	3.6016	-2.3414	25.09	-0.09	-0.050			
0.6905	44189.07	3.6010	3.6009	-2.2987	25.13	-0.05	-0.050			
0.6926	44324.25	3.6000	3.5998	-2.2544	25.16	-0.02	-0.050			
0.6947	44460.99	3.5990	3.5990	-2.2292	25.20	0.02	-0.050			
0.6969	44600.12	3.5980	3.5979	-2.2207	25.22	0.04	-0.050			
0.6992	44750.25	3.5970	3.5973	-2.2425	25.24	0.06	-0.050			
0.7015	44897.47	3.5960	3.5962	-2.2455	25.28	0.10	-0.050	0.806	1.006	
0.7039	45046.88	3.5950	3.5951	-2.2439	25.29	0.11	-0.050			
0.7061	45187.64	3.5940	3.5941	-2.2380	25.31	0.13	-0.050			
0.7083	45328.70	3.5930	3.5928	-2.2341	25.32	0.14	-0.050			
0.7104	45468.49	3.5920	3.5921	-2.2294	25.34	0.16	-0.050			
0.7127	45610.68	3.5910	3.5910	-2.2241	25.36	0.18	-0.050			
0.7149	45752.46	3.5900	3.5900	-2.2180	25.34	0.16	-0.050			
0.7171	45894.41	3.5890	3.5890	-2.2088	25.29	0.11	-0.050			
0.7193	46035.99	3.5880	3.5881	-2.1973	25.24	0.06	-0.050			
0.7216	46181.75	3.5870	3.5869	-2.1698	25.18	0.00	-0.050	0.789	1.036	
0.7239	46327.37	3.5860	3.5858	-2.1403	25.13	-0.05	-0.050			
0.7261	46471.01	3.5850	3.5849	-2.1020	25.10	-0.08	-0.050			
0.7283	46608.95	3.5840	3.5841	-2.0619	25.08	-0.10	-0.050			
0.7304	46744.63	3.5830	3.5830	-2.0249	25.08	-0.10	-0.050			
0.7324	46874.68	3.5820	3.5821	-1.9801	25.10	-0.08	-0.050			
0.7344	47003.38	3.5810	3.5811	-1.9371	25.11	-0.07	-0.050			
0.7364	47126.63	3.5800	3.5802	-1.8967	25.13	-0.05	-0.050			
0.7382	47243.91	3.5790	3.5793	-1.8543	25.15	-0.03	-0.050			
0.7400	47358.62	3.5780	3.5784	-1.8183	25.16	-0.02	-0.050	0.478	0.539	
0.7417	47470.08	3.5770	3.5767	-1.7772	25.18	0.00	-0.050			
0.7434	47576.12	3.5760	3.5756	-1.7432	25.18	0.00	-0.050			
0.7450	47679.87	3.5750	3.5748	-1.7134	25.18	0.00	-0.050			
0.7466	47780.33	3.5740	3.5739	-1.6820	25.20	0.02	-0.050			
0.7481	47880.52	3.5730	3.5729	-1.6642	25.22	0.04	-0.050			
0.7497	47981.19	3.5720	3.5721	-1.6524	25.24	0.06	-0.050			
0.7513	48084.33	3.5710	3.5708	-1.6461	25.24	0.06	-0.050			
0.7529	48187.25	3.5700	3.5700	-1.6478	25.26	0.08	-0.050			
0.7546	48292.80	3.5690	3.5690	-1.6558	25.26	0.08	-0.050			
0.7563	48401.56	3.5680	3.5679	-1.6680	25.25	0.07	-0.050			
0.7580	48512.14	3.5670	3.5669	-1.6802	25.25	0.07	-0.050			
0.7597	48619.35	3.5660	3.5660	-1.6832	25.25	0.07	-0.050			
0.7613	48725.15	3.5650	3.5649	-1.6852	25.23	0.05	-0.050	0.460	0.721	
0.7630	48831.97	3.5640	3.5641	-1.6898	25.21	0.03	-0.050			
0.7647	48939.96	3.5630	3.5630	-1.6955	25.19	0.01	-0.050			
0.7664	49048.37	3.5620	3.5621	-1.6990	25.17	-0.01	-0.050			
0.7681	49157.88	3.5610	3.5608	-1.7035	25.14	-0.04	-0.050			
0.7698	49267.87	3.5600	3.5600	-1.7039	25.10	-0.08	-0.050			
0.7715	49378.43	3.5590	3.5591	-1.7058	25.06	-0.12	-0.050			
0.7733	49490.81	3.5580	3.5580	-1.7045	25.04	-0.14	-0.050			
0.7750	49599.31	3.5570	3.5569	-1.7095	25.02	-0.16	-0.050			
0.7767	49708.76	3.5560	3.5560	-1.7130	25.00	-0.18	-0.050			
0.7784	49819.28	3.5550	3.5551	-1.7121	24.98	-0.20	-0.050			
0.7802	49929.78	3.5540	3.5539	-1.7063	24.98	-0.20	-0.050			
0.7819	50044.03	3.5530	3.5530	-1.6882	24.96	-0.22	-0.050			
0.7837	50157.84	3.5520	3.5520	-1.6618	24.96	-0.22	-0.050			
0.7854	50268.28	3.5510	3.5511	-1.6307	24.95	-0.23	-0.050			
0.7872	50378.12	3.5500	3.5498	-1.5836	24.95	-0.23	-0.050			
0.7888	50482.82	3.5490	3.5488	-1.5431	24.95	-0.23	-0.050			
0.7904	50584.24	3.5480	3.5478	-1.5030	24.95	-0.23	-0.050			
0.7919	50680.07	3.5470	3.5474	-1.4577	24.94	-0.24	-0.050			
0.7933	50773.70	3.5460	3.5463	-1.4101	24.95	-0.23	-0.050			
0.7947	50862.66	3.5450	3.5454	-1.3656	24.95	-0.23	-0.050			
0.7961	50948.29	3.5440	3.5445	-1.3247	24.93	-0.25	-0.050			
0.7973	51029.51	3.5430	3.5436	-1.2860	24.92	-0.26	-0.050			
0.7985	51106.58	3.5420	3.5416	-1.2485	24.92	-0.26	-0.050			
0.7997	51181.04	3.5410	3.5406	-1.2060	24.92	-0.26	-0.050			
0.8008	51252.14	3.5400	3.5395	-1.1671	24.92	-0.26	-0.050	0.625	0.894	
0.8019	51319.93	3.5390	3.5387	-1.1381	24.93	-0.25	-0.050			
0.8029	51384.82	3.5380	3.5382	-1.1055	24.94	-0.24	-0.050			
0.8039	51447.34	3.5370	3.5370	-1.0695	24.95	-0.23	-0.050			
0.8049	51514.53	3.5360	3.5361	-1.0559	24.98	-0.20	-0.050			
0.8060	51582.41	3.5350	3.5353	-1.0441	24.99	-0.19	-0.050			
0.8070	51650.20	3.5340	3.5339	-1.0367	25.02	-0.16	-0.050			
0.8081	51720.13	3.5330	3.5332	-1.0358	25.03	-0.15	-0.050			
0.8092	51789.29	3.5320	3.5323	-1.0333	25.05	-0.13	-0.050			
0.8102	51855.13	3.5310	3.5310	-1.0215	25.07	-0.11	-0.050			
0.8112	51917.36	3.5300	3.5302	-1.0117	25.09	-0.09	-0.050			
0.8122	51978.91	3.5290	3.5292	-1.0002	25.10	-0.08	-0.050			
0.8131	52040.68	3.5280	3.5280	-0.9930	25.12	-0.06	-0.050			
0.8141	52101.56	3.5270	3.5272	-0.9901	25.14	-0.04	-0.050			
0.8150	52162.96	3.5260	3.5259	-0.9914	25.16	-0.02	-0.050			
0.8160	52224.41	3.5250	3.5251	-0.9901	25.18	0.00	-0.050			
0.8170	52285.27	3.5240	3.5238	-0.9922	25.18	0.00	-0.050			
0.8179	52347.54	3.5230	3.5231	-0.9937	25.19	0.01	-0.050			
0.8189	52410.90	3.5220	3.5220	-0.9985	25.21	0.03	-0.050			
0.8199	52475.49	3.5210	3.5210	-1.0066	25.22	0.04	-0.050			
0.8209	52540.74	3.5200	3.5199	-1.0114	25.23	0.05	-0.050	0.549	0.840	
0.8220	52606.48	3.5190	3.5187	-1.0146	25.26	0.08	-0.050			
0.8230	52674.18	3.5180	3.5180	-1.0179	25.28	0.10	-0.050			
0.8241	52740.87	3.5170	3.5170	-1.0187	25.28	0.10	-0.050			
0.8251	52808.33	3.5160	3.5159	-1.0152	25.29	0.11	-0.050			
0.8262	52875.46	3.5150	3.5151	-1.0134	25.30	0.12	-0.050			
0.8272	52941.71	3.5140	3.5142	-1.0059	25.31	0.13	-0.050			
0.8282	53007.79	3.5130	3.5128	-0.9964	25.32	0.14	-0.050			
0.8293	53072.56	3.5120	3.5121	-0.9874	25.34	0.16	-0.050			
0.8303	53136.10	3.5110	3.5112	-0.9747	25.35	0.17	-0.050			
0.8312	53198.95	3.5100	3.5098	-0.9617	25.36	0.18	-0.050			
0.8322	53261.52	3.5090	3.5092	-0.9500	25.37	0.19	-0.050			
0.8331	53321.49	3.5080	3.5080	-0.9336	25.38	0.20	-0.050			
0.8341	53380.62	3.5070	3.5071	-0.9189	25.40	0.22	-0.050			
0.8350	53438.46	3.5060	3.5061	-0.9035	25.42	0.24	-0.050			
0.8359	53495.05	3.5050	3.5050	-0.8899	25.42	0.24	-0.050			
0.8367	53550.84	3.5040	3.5040	-0.8761	25.44	0.26	-0.050			
0.8376	53604.73	3.5030	3.5029	-0.8679	25.46	0.28	-0.050			
0.8384	53656.27	3.5020	3.5021	-0.8635	25.48	0.30	-0.050			
0.8392	53708.11	3.5010	3.5011	-0.8657	25.51	0.33	-0.050			
0.8400	53761.29	3.5000	3.5001	-0.8680	25.51	0.33	-0.050			
0.8408	53812.20	3.4990	3.4991	-0.8745	25.52	0.34	-0.050	0.457	0.821	
0.8416	53863.34	3.4980	3.4981	-0.8866	25.52	0.34	-0.050			
0.8424	53914.70	3.4970	3.4971	-0.9117	25.52	0.34	-0.050			
0.8432	53967.07	3.4960	3.4961	-0.9341	25.52	0.34	-0.050			
0.8441	54020.33	3.4950	3.4951	-0.9764	25.52	0.34	-0.050			
0.8449	54076.05	3.4940	3.4939	-1.0280	25.50	0.32	-0.050			
0.8459	54135.28	3.4930	3.4929	-1.0744	25.51	0.33	-0.050			
0.8470	54205.33	3.4920	3.4920	-1.1259	25.50	0.32	-0.050			
0.8480	54274.27	3.4910	3.4911	-1.1934	25.50	0.32	-0.050			
0.8491	54344.60	3.4900	3.4900	-1.2648	25.49	0.31	-0.050			
0.8503	54421.73	3.4890	3.4891	-1.3528	25.48	0.30	-0.050			
0.8516	54505.54	3.4880	3.4880	-1.4491	25.46	0.28	-0.050			
0.8531	54595.58	3.4870	3.4870	-1.5429	25.44	0.26	-0.050			
0.8546	54694.41	3.4860	3.4860	-1.6503	25.43	0.25	-0.050			
0.8563	54802.53	3.4850	3.4852	-1.7591	25.43	0.25	-0.050			
0.8581	54920.09	3.4840	3.4842	-1.8653	25.42	0.24	-0.050			
0.8601	55046.46	3.4830	3.4827	-1.9628	25.45	0.27	-0.050	0.317	0.791	
0.8622	55180.32	3.4820	3.4817	-2.0585	25.49	0.31	-0.050			
0.8644	55323.04	3.4810	3.4807	-2.1493	25.53	0.35	-0.050			
0.8667	55471.32	3.4800	3.4799	-2.2248	25.59	0.41	-0.050			
0.8692	55626.63	3.4790	3.4790	-2.2882	25.63	0.45	-0.050			
0.8716	55783.62	3.4780	3.4781	-2.3405	25.64	0.46	-0.050			
0.8741	55944.79	3.4770	3.4771	-2.3873	25.64	0.46	-0.050			
0.8767	56106.57	3.4760	3.4761	-2.4106	25.64	0.46	-0.050			
0.8792	56270.96	3.4750	3.4752	-2.4253	25.62	0.44	-0.050			
0.8819	56438.50	3.4740	3.4740	-2.4310	25.60	0.42	-0.050	0.491	0.656	
0.8845	56605.86	3.4730	3.4729	-2.4326	25.56	0.38	-0.050			
0.8869	56764.79	3.4720	3.4721	-2.4040	25.52	0.34	-0.050			
0.8893	56915.24	3.4710	3.4709	-2.3820	25.48	0.30	-0.050			
0.8917	57065.63	3.4700	3.4701	-2.3559	25.42	0.24	-0.050			
0.8940	57217.09	3.4690	3.4689	-2.3167	25.38	0.20	-0.050			
0.8964	57367.87	3.4680	3.4679	-2.2668	25.33	0.15	-0.050			
0.8987	57516.13	3.4670	3.4669	-2.2030	25.27	0.09	-0.050			
0.9009	57659.59	3.4660	3.4659	-2.1358	25.20	0.02	-0.050	0.408	0.740	
0.9031	57798.69	3.4650	3.4649	-2.0670	25.15	-0.03	-0.050			
0.9052	57932.23	3.4640	3.4639	-1.9987	25.11	-0.07	-0.050			
0.9072	58059.31	3.4630	3.4629	-1.9344	25.08	-0.10	-0.050			
0.9091	58182.99	3.4620	3.4619	-1.8724	25.06	-0.12	-0.050			
0.9110	58303.02	3.4610	3.4616	-1.8114	25.06	-0.12	-0.050			
0.9128	58416.37	3.4600	3.4608	-1.7450	25.04	-0.14	-0.050			
0.9145	58524.96	3.4590	3.4597	-1.6801	25.03	-0.15	-0.050			
0.9161	58629.91	3.4580	3.4576	-1.6126	25.01	-0.17	-0.050			
0.9176	58728.91	3.4570	3.4565	-1.5493	25.00	-0.18	-0.050			
0.9191	58823.91	3.4560	3.4557	-1.4828	24.98	-0.20	-0.050			
0.9205	58911.30	3.4550	3.4548	-1.4174	24.98	-0.20	-0.050	0.784	1.023	
0.9218	58995.07	3.4540	3.4540	-1.3516	24.98	-0.20	-0.050			
0.9230	59074.58	3.4530	3.4532	-1.2893	24.98	-0.20	-0.050			
0.9242	59151.25	3.4520	3.4523	-1.2289	24.98	-0.20	-0.050			
0.9254	59223.68	3.4510	3.4514	-1.1671	24.98	-0.20	-0.050			
0.9266	59300.75	3.4500	3.4502	-1.1388	24.98	-0.20	-0.050			
0.9278	59380.15	3.4490	3.4493	-1.1039	24.96	-0.22	-0.050			
0.9290	59456.12	3.4480	3.4481	-1.0602	24.96	-0.22	-0.050			
0.9301	59523.66	3.4470	3.4468	-1.0072	24.96	-0.22	-0.050			
0.9310	59585.79	3.4460	3.4460	-0.9524	24.97	-0.21	-0.050			
0.9319	59642.86	3.4450	3.4449	-0.8985	24.99	-0.19	-0.050			
0.9328	59696.80	3.4440	3.4439	-0.8488	25.00	-0.18	-0.050			
0.9335	59744.88	3.4430	3.4431	-0.7886	25.01	-0.17	-0.050			
0.9342	59791.34	3.4420	3.4422	-0.7448	25.02	-0.16	-0.050			
0.9349	59834.28	3.4410	3.4411	-0.7052	25.04	-0.14	-0.050			
0.9356	59876.51	3.4400	3.4401	-0.6624	25.06	-0.12	-0.050			
0.9362	59914.87	3.4390	3.4389	-0.6269	25.07	-0.11	-0.050			
0.9368	59953.28	3.4380	3.4381	-0.5917	25.09	-0.09	-0.050			
0.9373	59987.11	3.4370	3.4372	-0.5619	25.11	-0.07	-0.050			
0.9378	60019.68	3.4360	3.4360	-0.5366	25.13	-0.05	-0.050			
0.9383	60050.89	3.4350	3.4348	-0.5062	25.14	-0.04	-0.050			
0.9388	60080.24	3.4340	3.4340	-0.4858	25.15	-0.03	-0.050			
0.9392	60109.30	3.4330	3.4331	-0.4624	25.16	-0.02	-0.050			
0.9396	60134.86	3.4320	3.4317	-0.4420	25.18	-0.00	-0.050			
0.9400	60162.12	3.4310	3.4309	-0.4252	25.19	0.01	-0.050			
0.9404	60188.05	3.4300	3.4300	-0.4132	25.21	0.03	-0.050			
0.9408	60213.22	3.4290	3.4293	-0.3980	25.22	0.04	-0.050	0.624	0.960	
0.9412	60236.68	3.4280	3.4280	-0.3863	25.24	0.06	-0.050			
0.9416	60260.06	3.4270	3.4272	-0.3733	25.25	0.07	-0.050			
0.9419	60282.65	3.4260	3.4258	-0.3634	25.26	0.08	-0.050			
0.9423	60305.48	3.4250	3.4251	-0.3538	25.27	0.09	-0.050			
0.9426	60326.88	3.4240	3.4239	-0.3448	25.29	0.11	-0.050			
0.9429	60348.68	3.4230	3.4231	-0.3367	25.30	0.12	-0.050			
0.9433	60368.87	3.4220	3.4218	-0.3305	25.32	0.14	-0.050			
0.9436	60389.11	3.4210	3.4210	-0.3220	25.32	0.14	-0.050			
0.9439	60409.16	3.4200	3.4199	-0.3169	25.33	0.15	-0.050			
0.9442	60428.70	3.4190	3.4191	-0.3100	25.33	0.15	-0.050			
0.9445	60448.37	3.4180	3.4178	-0.3049	25.34	0.16	-0.050			
0.9448	60467.02	3.4170	3.4171	-0.3013	25.36	0.18	-0.050			
0.9451	60485.69	3.4160	3.4159	-0.2960	25.36	0.18	-0.050			
0.9454	60504.32	3.4150	3.4152	-0.2927	25.37	0.19	-0.050			
0.9457	60522.46	3.4140	3.4138	-0.2880	25.38	0.20	-0.050			
0.9459	60540.80	3.4130	3.4130	-0.2849	25.38	0.20	-0.050			
0.9462	60558.50	3.4120	3.4119	-0.2816	25.39	0.21	-0.050			
0.9465	60576.44	3.4110	3.4110	-0.2789	25.40	0.22	-0.050			
0.9468	60593.87	3.4100	3.4102	-0.2765	25.41	0.23	-0.050			
0.9471	60611.49	3.4090	3.4088	-0.2742	25.42	0.24	-0.050			
0.9473	60628.48	3.4080	3.4081	-0.2720	25.43	0.25	-0.050			
0.9476	60645.83	3.4070	3.4068	-0.2702	25.44	0.26	-0.050			
0.9479	60662.93	3.4060	3.4063	-0.2681	25.45	0.27	-0.050			
0.9481	60680.07	3.4050	3.4050	-0.2663	25.46	0.28	-0.050			
0.9484	60697.15	3.4040	3.4041	-0.2647	25.46	0.28	-0.050			
0.9487	60714.16	3.4030	3.4030	-0.2625	25.47	0.29	-0.050			
0.9489	60730.86	3.4020	3.4017	-0.2604	25.48	0.30	-0.050			
0.9492	60747.46	3.4010	3.4010	-0.2585	25.48	0.30	-0.050			
0.9494	60763.65	3.4000	3.3999	-0.2559	25.48	0.30	-0.050			
0.9497	60779.98	3.3990	3.3990	-0.2543	25.49	0.31	-0.050			
0.9499	60796.20	3.3980	3.3980	-0.2527	25.49	0.31	-0.050			
0.9502	60812.41	3.3970	3.3970	-0.2522	25.50	0.32	-0.050			
0.9504	60828.49	3.3960	3.3962	-0.2505	25.51	0.33	-0.050			
0.9507	60843.97	3.3950	3.3950	-0.2490	25.52	0.34	-0.050			
0.9509	60859.87	3.3940	3.3942	-0.2479	25.53	0.35	-0.050			
0.9512	60875.70	3.3930	3.3930	-0.2468	25.54	0.36	-0.050			
0.9514	60891.41	3.3920	3.3919	-0.2462	25.54	0.36	-0.050			
0.9517	60907.14	3.3910	3.3911	-0.2452	25.55	0.37	-0.050			
0.9519	60922.61	3.3900	3.3898	-0.2438	25.55	0.37	-0.050			
0.9522	60938.18	3.3890	3.3891	-0.2429	25.56	0.38	-0.050			
0.9524	60953.41	3.3880	3.3881	-0.2414	25.56	0.38	-0.050			
0.9526	60969.00	3.3870	3.3865	-0.2404	25.57	0.39	-0.050			
0.9529	60984.36	3.3860	3.3862	-0.2397	25.58	0.40	-0.050			
0.9531	60999.49	3.3850	3.3850	-0.2386	25.58	0.40	-0.050			
0.9534	61015.14	3.3840	3.3839	-0.2368	25.59	0.41	-0.050			
0.9536	61030.58	3.3830	3.3831	-0.2366	25.60	0.42	-0.050			
0.9538	61045.68	3.3820	3.3819	-0.2352	25.60	0.42	-0.050			
0.9541	61060.71	3.3810	3.3811	-0.2339	25.61	0.43	-0.050			
0.9543	61076.04	3.3800	3.3801	-0.2333	25.62	0.44	-0.050			
0.9545	61090.92	3.3790	3.3789	-0.2316	25.62	0.44	-0.050			
0.9548	61105.52	3.3780	3.3781	-0.2306	25.63	0.45	-0.050			
0.9550	61120.29	3.3770	3.3770	-0.2292	25.63	0.45	-0.050			
0.9552	61134.57	3.3760	3.3760	-0.2287	25.63	0.45	-0.050			
0.9555	61148.94	3.3750	3.3751	-0.2269	25.64	0.46	-0.050			
0.9557	61163.43	3.3740	3.3740	-0.2259	25.64	0.46	-0.050			
0.9559	61177.75	3.3730	3.3731	-0.2252	25.65	0.47	-0.050			
0.9561	61191.87	3.3720	3.3720	-0.2238	25.65	0.47	-0.050			
0.9563	61206.17	3.3710	3.3707	-0.2231	25.66	0.48	-0.050			
0.9566	61220.38	3.3700	3.3701	-0.2216	25.67	0.49	-0.050			
0.9568	61234.55	3.3690	3.3691	-0.2210	25.67	0.49	-0.050			
0.9570	61248.67	3.3680	3.3677	-0.2203	25.68	0.50	-0.050			
0.9572	61262.94	3.3670	3.3671	-0.2190	25.69	0.51	-0.050			
0.9575	61276.93	3.3660	3.3660	-0.2182	25.69	0.51	-0.050			
0.9577	61290.87	3.3650	3.3648	-0.2173	25.69	0.51	-0.050			
0.9579	61304.97	3.3640	3.3642	-0.2165	25.70	0.52	-0.050			
0.9581	61318.79	3.3630	3.3631	-0.2155	25.70	0.52	-0.050			
0.9583	61332.55	3.3620	3.3620	-0.2144	25.70	0.52	-0.050			
0.9585	61346.65	3.3610	3.3611	-0.2140	25.71	0.53	-0.050			
0.9588	61360.19	3.3600	3.3600	-0.2131	25.71	0.53	-0.050			
0.9590	61373.79	3.3590	3.3590	-0.2118	25.72	0.54	-0.050			
0.9592	61387.09	3.3580	3.3582	-0.2110	25.72	0.54	-0.050			
0.9594	61400.56	3.3570	3.3570	-0.2099	25.73	0.55	-0.050			
0.9596	61413.82	3.3560	3.3558	-0.2086	25.74	0.56	-0.050			
0.9598	61426.96	3.3550	3.3550	-0.2080	25.75	0.57	-0.050			
0.9600	61440.25	3.3540	3.3539	-0.2073	25.75	0.57	-0.050			
0.9602	61453.15	3.3530	3.3530	-0.2059	25.75	0.57	-0.050			
0.9604	61466.44	3.3520	3.3521	-0.2051	25.75	0.57	-0.050			
0.9606	61479.55	3.3510	3.3510	-0.2046	25.75	0.57	-0.050			
0.9608	61492.56	3.3500	3.3500	-0.2039	25.75	0.57	-0.050	0.874	1.042	
0.9610	61505.59	3.3490	3.3492	-0.2034	25.76	0.58	-0.050			
0.9612	61518.43	3.3480	3.3479	-0.2035	25.76	0.58	-0.050			
0.9614	61531.42	3.3470	3.3468	-0.2031	25.77	0.59	-0.050			
0.9616	61544.41	3.3460	3.3462	-0.2028	25.77	0.59	-0.050			
0.9618	61557.03	3.3450	3.3451	-0.2041	25.77	0.59	-0.050			
0.9620	61569.93	3.3440	3.3438	-0.2038	25.78	0.60	-0.050			
0.9622	61583.16	3.3430	3.3432	-0.2037	25.78	0.60	-0.050			
0.9624	61596.20	3.3420	3.3422	-0.2038	25.78	0.60	-0.050			
0.9626	61609.25	3.3410	3.3407	-0.2040	25.79	0.61	-0.050			
0.9628	61622.09	3.3400	3.3401	-0.2038	25.79	0.61	-0.050			
0.9631	61635.48	3.3390	3.3389	-0.2031	25.80	0.62	-0.050			
0.9633	61648.48	3.3380	3.3376	-0.2031	25.80	0.62	-0.050			
0.9635	61661.47	3.3370	3.3370	-0.2030	25.80	0.62	-0.050			
0.9637	61675.10	3.3360	3.3357	-0.2009	25.80	0.62	-0.050			
0.9639	61688.24	3.3350	3.3350	-0.2010	25.81	0.63	-0.050			
0.9641	61701.07	3.3340	3.3342	-0.2000	25.81	0.63	-0.050			
0.9643	61713.98	3.3330	3.3331	-0.1985	25.81	0.63	-0.050			
0.9645	61727.12	3.3320	3.3321	-0.1986	25.82	0.64	-0.050			
0.9647	61739.78	3.3310	3.3311	-0.1971	25.82	0.64	-0.050			
0.9649	61752.34	3.3300	3.3301	-0.1955	25.83	0.65	-0.050			
0.9651	61764.66	3.3290	3.3290	-0.1945	25.83	0.65	-0.050			
0.9653	61777.55	3.3280	3.3280	-0.1939	25.84	0.66	-0.050			
0.9655	61789.90	3.3270	3.3270	-0.1921	25.84	0.66	-0.050			
0.9657	61801.69	3.3260	3.3261	-0.1919	25.85	0.67	-0.050			
0.9658	61813.58	3.3250	3.3251	-0.1899	25.85	0.67	-0.050			
0.9660	61825.70	3.3240	3.3240	-0.1888	25.86	0.68	-0.050			
0.9662	61837.02	3.3230	3.3229	-0.1865	25.86	0.68	-0.050			
0.9664	61848.94	3.3220	3.3219	-0.1861	25.87	0.69	-0.050			
0.9666	61860.84	3.3210	3.3211	-0.1857	25.87	0.69	-0.050			
0.9668	61872.72	3.3200	3.3200	-0.1853	25.87	0.69	-0.050			
0.9669	61884.55	3.3190	3.3189	-0.1842	25.87	0.69	-0.050			
0.9671	61896.33	3.3180	3.3180	-0.1838	25.87	0.69	-0.050			
0.9673	61908.09	3.3170	3.3170	-0.1834	25.87	0.69	-0.050			
0.9675	61919.68	3.3160	3.3159	-0.1828	25.87	0.69	-0.050			
0.9677	61931.53	3.3150	3.3150	-0.1820	25.87	0.69	-0.050			
0.9679	61943.17	3.3140	3.3142	-0.1816	25.87	0.69	-0.050			
0.9681	61955.20	3.3130	3.3129	-0.1818	25.87	0.69	-0.050			
0.9682	61966.90	3.3120	3.3120	-0.1808	25.87	0.69	-0.050			
0.9684	61978.44	3.3110	3.3111	-0.1798	25.87	0.69	-0.050			
0.9686	61989.92	3.3100	3.3101	-0.1789	25.88	0.70	-0.050			
0.9688	62001.46	3.3090	3.3090	-0.1781	25.88	0.70	-0.050			
0.9689	62012.75	3.3080	3.3079	-0.1772	25.89	0.71	-0.050			
0.9691	62024.07	3.3070	3.3070	-0.1763	25.89	0.71	-0.050			
0.9693	62035.37	3.3060	3.3061	-0.1754	25.88	0.70	-0.050			
0.9695	62046.28	3.3050	3.3050	-0.1750	25.88	0.70	-0.050			
0.9696	62057.45	3.3040	3.3039	-0.1742	25.88	0.70	-0.050			
0.9698	62068.35	3.3030	3.3030	-0.1729	25.87	0.69	-0.050			
0.9700	62079.40	3.3020	3.3021	-0.1724	25.87	0.69	-0.050			
0.9702	62090.39	3.3010	3.3011	-0.1719	25.87	0.69	-0.050			
0.9703	62101.38	3.3000	3.3000	-0.1714	25.87	0.69	-0.050			
0.9705	62112.21	3.2990	3.2990	-0.1706	25.87	0.69	-0.050			
0.9707	62123.12	3.2980	3.2980	-0.1702	25.87	0.69	-0.050			
0.9708	62134.01	3.2970	3.2969	-0.1697	25.87	0.69	-0.050			
0.9710	62144.86	3.2960	3.2959	-0.1692	25.87	0.69	-0.050			
0.9712	62155.62	3.2950	3.2948	-0.1686	25.87	0.69	-0.050			
0.9713	62166.40	3.2940	3.2940	-0.1682	25.87	0.69	-0.050			
0.9715	62177.28	3.2930	3.2930	-0.1673	25.87	0.69	-0.050			
0.9717	62187.98	3.2920	3.2920	-0.1668	25.87	0.69	-0.050			
0.9719	62198.64	3.2910	3.2911	-0.1662	25.86	0.68	-0.050			
0.9720	62209.26	3.2900	3.2901	-0.1657	25.86	0.68	-0.050			
0.9722	62219.80	3.2890	3.2891	-0.1653	25.86	0.68	-0.050			
0.9724	62230.52	3.2880	3.2879	-0.1651	25.85	0.67	-0.050			
0.9725	62241.06	3.2870	3.2870	-0.1644	25.85	0.67	-0.050			
0.9727	62251.57	3.2860	3.2860	-0.1638	25.84	0.66	-0.050			
0.9728	62261.94	3.2850	3.2849	-0.1634	25.84	0.66	-0.050			
0.9730	62272.39	3.2840	3.2840	-0.1629	25.84	0.66	-0.050			
0.9732	62282.79	3.2830	3.2831	-0.1623	25.83	0.65	-0.050			
0.9733	62293.36	3.2820	3.2821	-0.1612	25.83	0.65	-0.050			
0.9735	62303.60	3.2810	3.2810	-0.1603	25.82	0.64	-0.050			
0.9737	62313.84	3.2800	3.2801	-0.1597	25.82	0.64	-0.050			
0.9738	62324.03	3.2790	3.2789	-0.1590	25.81	0.63	-0.050			
0.9740	62334.19	3.2780	3.2779	-0.1583	25.80	0.62	-0.050			
0.9741	62344.38	3.2770	3.2771	-0.1579	25.80	0.62	-0.050			
0.9743	62354.46	3.2760	3.2760	-0.1571	25.80	0.62	-0.050			
0.9744	62364.50	3.2750	3.2750	-0.1564	25.80	0.62	-0.050			
0.9746	62374.48	3.2740	3.2740	-0.1557	25.79	0.61	-0.050			
0.9748	62384.40	3.2730	3.2731	-0.1552	25.79	0.61	-0.050			
0.9749	62394.31	3.2720	3.2721	-0.1545	25.79	0.61	-0.050			
0.9751	62404.18	3.2710	3.2711	-0.1538	25.79	0.61	-0.050			
0.9752	62414.00	3.2700	3.2700	-0.1531	25.78	0.60	-0.050			
0.9754	62424.08	3.2690	3.2689	-0.1521	25.78	0.60	-0.050			
0.9755	62433.78	3.2680	3.2679	-0.1511	25.78	0.60	-0.050			
0.9757	62443.43	3.2670	3.2669	-0.1502	25.77	0.59	-0.050			
0.9758	62453.01	3.2660	3.2659	-0.1492	25.77	0.59	-0.050			
0.9760	62462.62	3.2650	3.2650	-0.1478	25.77	0.59	-0.050			
0.9761	62472.05	3.2640	3.2640	-0.1468	25.77	0.59	-0.050			
0.9763	62481.41	3.2630	3.2630	-0.1457	25.77	0.59	-0.050			
0.9764	62490.77	3.2620	3.2620	-0.1448	25.77	0.59	-0.050			
0.9766	62500.01	3.2610	3.2610	-0.1437	25.77	0.59	-0.050			
0.9767	62508.74	3.2600	3.2601	-0.1437	25.77	0.59	-0.050			
0.9768	62517.91	3.2590	3.2591	-0.1430	25.76	0.58	-0.050			
0.9770	62527.04	3.2580	3.2582	-0.1423	25.76	0.58	-0.050			
0.9771	62536.22	3.2570	3.2572	-0.1417	25.76	0.58	-0.050			
0.9773	62545.26	3.2560	3.2563	-0.1409	25.75	0.57	-0.050			
0.9774	62553.85	3.2550	3.2554	-0.1414	25.75	0.57	-0.050			
0.9775	62562.89	3.2540	3.2535	-0.1410	25.75	0.57	-0.050			
0.9777	62571.35	3.2530	3.2526	-0.1396	25.74	0.56	-0.050			
0.9778	62580.28	3.2520	3.2518	-0.1396	25.74	0.56	-0.050			
0.9780	62589.24	3.2510	3.2509	-0.1395	25.74	0.56	-0.050			
0.9781	62598.17	3.2500	3.2499	-0.1395	25.73	0.55	-0.050			
0.9782	62606.69	3.2490	3.2488	-0.1386	25.73	0.55	-0.050			
0.9784	62615.57	3.2480	3.2480	-0.1389	25.73	0.55	-0.050			
0.9785	62624.46	3.2470	3.2471	-0.1391	25.72	0.54	-0.050			
0.9787	62633.62	3.2460	3.2461	-0.1386	25.72	0.54	-0.050			
0.9788	62642.64	3.2450	3.2450	-0.1392	25.72	0.54	-0.050			
0.9789	62651.54	3.2440	3.2439	-0.1391	25.71	0.53	-0.050			
0.9791	62660.45	3.2430	3.2431	-0.1390	25.71	0.53	-0.050			
0.9792	62669.34	3.2420	3.2421	-0.1390	25.71	0.53	-0.050			
0.9793	62678.24	3.2410	3.2411	-0.1389	25.71	0.53	-0.050			
0.9795	62687.72	3.2400	3.2399	-0.1391	25.71	0.53	-0.050			
0.9796	62696.60	3.2390	3.2389	-0.1386	25.70	0.52	-0.050			
0.9798	62705.45	3.2380	3.2380	-0.1380	25.70	0.52	-0.050			
0.9799	62714.33	3.2370	3.2370	-0.1373	25.70	0.52	-0.050			
0.9800	62723.09	3.2360	3.2359	-0.1367	25.70	0.52	-0.050			
0.9802	62731.81	3.2350	3.2348	-0.1361	25.70	0.52	-0.050			
0.9803	62740.50	3.2340	3.2338	-0.1355	25.70	0.52	-0.050			
0.9805	62749.15	3.2330	3.2329	-0.1349	25.70	0.52	-0.050			
0.9806	62757.72	3.2320	3.2320	-0.1344	25.70	0.52	-0.050			
0.9807	62766.34	3.2310	3.2309	-0.1339	25.70	0.52	-0.050	0.453	0.794	
0.9809	62774.89	3.2300	3.2299	-0.1334	25.70	0.52	-0.050			
0.9810	62783.41	3.2290	3.2289	-0.1328	25.70	0.52	-0.050			
0.9811	62791.63	3.2280	3.2280	-0.1329	25.70	0.52	-0.050			
0.9813	62800.13	3.2270	3.2271	-0.1325	25.69	0.51	-0.050			
0.9814	62808.53	3.2260	3.2261	-0.1320	25.69	0.51	-0.050			
0.9815	62816.97	3.2250	3.2251	-0.1316	25.69	0.51	-0.050			
0.9816	62825.38	3.2240	3.2240	-0.1313	25.69	0.51	-0.050			
0.9818	62833.77	3.2230	3.2226	-0.1309	25.69	0.51	-0.050			
0.9819	62842.26	3.2220	3.2219	-0.1299	25.69	0.51	-0.050			
0.9820	62850.56	3.2210	3.2211	-0.1294	25.69	0.51	-0.050			
0.9822	62858.69	3.2200	3.2202	-0.1287	25.69	0.51	-0.050			
0.9823	62866.91	3.2190	3.2189	-0.1283	25.69	0.51	-0.050			
0.9824	62875.14	3.2180	3.2180	-0.1279	25.69	0.51	-0.050			
0.9826	62883.41	3.2170	3.2170	-0.1277	25.69	0.51	-0.050			
0.9827	62891.57	3.2160	3.2161	-0.1272	25.68	0.50	-0.050			
0.9828	62899.70	3.2150	3.2153	-0.1267	25.68	0.50	-0.050			
0.9829	62907.79	3.2140	3.2141	-0.1262	25.68	0.50	-0.050			
0.9831	62915.75	3.2130	3.2129	-0.1261	25.67	0.49	-0.050			
0.9832	62923.86	3.2120	3.2121	-0.1258	25.67	0.49	-0.050			
0.9833	62931.89	3.2110	3.2110	-0.1253	25.67	0.49	-0.050			
0.9834	62939.90	3.2100	3.2097	-0.1249	25.67	0.49	-0.050			
0.9836	62947.88	3.2090	3.2090	-0.1244	25.66	0.48	-0.050			
0.9837	62955.76	3.2080	3.2083	-0.1239	25.66	0.48	-0.050			
0.9838	62963.49	3.2070	3.2069	-0.1239	25.66	0.48	-0.050			
0.9839	62971.41	3.2060	3.2058	-0.1237	25.65	0.47	-0.050			
0.9841	62979.32	3.2050	3.2049	-0.1234	25.65	0.47	-0.050			
0.9842	62987.21	3.2040	3.2041	-0.1232	25.65	0.47	-0.050			
0.9843	62995.09	3.2030	3.2032	-0.1230	25.65	0.47	-0.050			
0.9844	63002.90	3.2020	3.2019	-0.1216	25.65	0.47	-0.050			
0.9845	63010.67	3.2010	3.2008	-0.1213	25.64	0.46	-0.050			
0.9847	63018.43	3.2000	3.2000	-0.1211	25.64	0.46	-0.050			
0.9848	63026.17	3.1990	3.1991	-0.1208	25.64	0.46	-0.050			
0.9849	63034.35	3.1980	3.1981	-0.1211	25.64	0.46	-0.050			
0.9850	63041.91	3.1970	3.1969	-0.1209	25.64	0.46	-0.050			
0.9852	63049.63	3.1960	3.1958	-0.1204	25.64	0.46	-0.050			
0.9853	63057.33	3.1950	3.1951	-0.1200	25.64	0.46	-0.050			
0.9854	63064.99	3.1940	3.1941	-0.1195	25.64	0.46	-0.050			
0.9855	63072.68	3.1930	3.1928	-0.1191	25.64	0.46	-0.050			
0.9856	63080.20	3.1920	3.1920	-0.1188	25.64	0.46	-0.050			
0.9857	63087.79	3.1910	3.1912	-0.1184	25.64	0.46	-0.050			
0.9859	63095.35	3.1900	3.1900	-0.1180	25.64	0.46	-0.050			
0.9860	63102.89	3.1890	3.1889	-0.1176	25.64	0.46	-0.050			
0.9861	63110.41	3.1880	3.1880	-0.1172	25.64	0.46	-0.050			
0.9862	63117.83	3.1870	3.1870	-0.1167	25.63	0.45	-0.050			
0.9863	63125.30	3.1860	3.1859	-0.1163	25.63	0.45	-0.050			
0.9864	63132.73	3.1850	3.1849	-0.1159	25.63	0.45	-0.050			
0.9866	63140.14	3.1840	3.1840	-0.1156	25.63	0.45	-0.050			
0.9867	63147.52	3.1830	3.1832	-0.1152	25.63	0.45	-0.050			
0.9868	63154.67	3.1820	3.1823	-0.1145	25.63	0.45	-0.050			
0.9869	63162.00	3.1810	3.1809	-0.1143	25.63	0.45	-0.050			
0.9870	63169.44	3.1800	3.1798	-0.1137	25.63	0.45	-0.050			
0.9871	63176.70	3.1790	3.1790	-0.1133	25.63	0.45	-0.050			
0.9872	63183.94	3.1780	3.1780	-0.1129	25.63	0.45	-0.050			
0.9874	63191.51	3.1770	3.1769	-0.1131	25.63	0.45	-0.050			
0.9875	63198.73	3.1760	3.1761	-0.1125	25.63	0.45	-0.050			
0.9876	63205.57	3.1750	3.1749	-0.1127	25.63	0.45	-0.050			
0.9877	63212.77	3.1740	3.1740	-0.1123	25.63	0.45	-0.050			
0.9878	63219.95	3.1730	3.1732	-0.1120	25.63	0.45	-0.050			
0.9879	63226.86	3.1720	3.1720	-0.1113	25.63	0.45	-0.050			
0.9880	63233.98	3.1710	3.1709	-0.1111	25.63	0.45	-0.050			
0.9881	63241.34	3.1700	3.1698	-0.1105	25.63	0.45	-0.050			
0.9883	63248.40	3.1690	3.1692	-0.1101	25.63	0.45	-0.050			
0.9884	63255.44	3.1680	3.1680	-0.1098	25.63	0.45	-0.050			
0.9885	63262.45	3.1670	3.1669	-0.1095	25.63	0.45	-0.050			
0.9886	63269.46	3.1660	3.1661	-0.1092	25.63	0.45	-0.050			
0.9887	63276.44	3.1650	3.1651	-0.1088	25.64	0.46	-0.050			
0.9888	63283.39	3.1640	3.1637	-0.1085	25.64	0.46	-0.050			
0.9889	63290.27	3.1630	3.1630	-0.1083	25.64	0.46	-0.050			
0.9890	63297.19	3.1620	3.1622	-0.1080	25.64	0.46	-0.050			
0.9891	63304.09	3.1610	3.1612	-0.1077	25.64	0.46	-0.050			
0.9892	63311.03	3.1600	3.1600	-0.1075	25.64	0.46	-0.050			
0.9893	63317.90	3.1590	3.1589	-0.1072	25.64	0.46	-0.050			
0.9894	63324.74	3.1580	3.1580	-0.1068	25.64	0.46	-0.050			
0.9896	63331.63	3.1570	3.1570	-0.1063	25.65	0.47	-0.050			
0.9897	63338.42	3.1560	3.1559	-0.1060	25.65	0.47	-0.050			
0.9898	63345.32	3.1550	3.1551	-0.1059	25.65	0.47	-0.050			
0.9899	63352.08	3.1540	3.1542	-0.1054	25.65	0.47	-0.050			
0.9900	63358.81	3.1530	3.1528	-0.1050	25.65	0.47	-0.050			
0.9901	63365.52	3.1520	3.1516	-0.1045	25.65	0.47	-0.050			
0.9902	63372.12	3.1510	3.1509	-0.1043	25.65	0.47	-0.050			
0.9903	63378.58	3.1500	3.1503	-0.1033	25.65	0.47	-0.050			
0.9904	63385.19	3.1490	3.1490	-0.1031	25.66	0.48	-0.050			
0.9905	63391.78	3.1480	3.1479	-0.1028	25.66	0.48	-0.050			
0.9906	63398.35	3.1470	3.1471	-0.1026	25.66	0.48	-0.050			
0.9907	63404.92	3.1460	3.1461	-0.1023	25.66	0.48	-0.050			
0.9908	63411.46	3.1450	3.1449	-0.1020	25.66	0.48	-0.050			
0.9909	63417.97	3.1440	3.1439	-0.1017	25.66	0.48	-0.050			
0.9910	63424.63	3.1430	3.1429	-0.1017	25.66	0.48	-0.050			
0.9911	63431.13	3.1420	3.1421	-0.1014	25.66	0.48	-0.050			
0.9912	63437.60	3.1410	3.1411	-0.1010	25.67	0.49	-0.050			
0.9913	63444.06	3.1400	3.1399	-0.1006	25.67	0.49	-0.050			
0.9914	63450.51	3.1390	3.1389	-0.1002	25.67	0.49	-0.050			
0.9915	63456.91	3.1380	3.1379	-0.0998	25.67	0.49	-0.050			
0.9916	63463.19	3.1370	3.1372	-0.0992	25.67	0.49	-0.050			
0.9917	63469.53	3.1360	3.1360	-0.0989	25.67	0.49	-0.050			
0.9918	63475.85	3.1350	3.1349	-0.0986	25.68	0.50	-0.050			
0.9919	63482.15	3.1340	3.1339	-0.0983	25.68	0.50	-0.050			
0.9920	63488.42	3.1330	3.1328	-0.0979	25.68	0.50	-0.050			
0.9921	63494.68	3.1320	3.1318	-0.0977	25.68	0.50	-0.050			
0.9922	63500.99	3.1310	3.1308	-0.0975	25.68	0.50	-0.050			
0.9923	63507.22	3.1300	3.1300	-0.0972	25.69	0.51	-0.050			
0.9924	63513.43	3.1290	3.1293	-0.0968	25.69	0.51	-0.050			
0.9925	63519.61	3.1280	3.1282	-0.0964	25.69	0.51	-0.050			
0.9926	63525.77	3.1270	3.1270	-0.0961	25.69	0.51	-0.050			
0.9927	63531.76	3.1260	3.1260	-0.0959	25.69	0.51	-0.050			
0.9928	63537.88	3.1250	3.1250	-0.0956	25.69	0.51	-0.050			
0.9929	63543.99	3.1240	3.1239	-0.0953	25.70	0.52	-0.050			
0.9930	63550.09	3.1230	3.1229	-0.0951	25.70	0.52	-0.050			
0.9931	63556.17	3.1220	3.1220	-0.0948	25.70	0.52	-0.050			
0.9932	63562.23	3.1210	3.1210	-0.0946	25.70	0.52	-0.050			
0.9933	63568.28	3.1200	3.1200	-0.0943	25.70	0.52	-0.050			
0.9933	63574.23	3.1190	3.1190	-0.0938	25.70	0.52	-0.050			
0.9934	63580.23	3.1180	3.1180	-0.0936	25.70	0.52	-0.050			
0.9935	63586.22	3.1170	3.1170	-0.0934	25.70	0.52	-0.050			
0.9936	63592.19	3.1160	3.1160	-0.0932	25.70	0.52	-0.050			
0.9937	63598.15	3.1150	3.1150	-0.0930	25.71	0.53	-0.050			
0.9938	63604.09	3.1140	3.1140	-0.0928	25.71	0.53	-0.050			
0.9939	63610.02	3.1130	3.1130	-0.0926	25.71	0.53	-0.050			
0.9940	63616.11	3.1120	3.1119	-0.0923	25.71	0.53	-0.050			
0.9941	63622.01	3.1110	3.1113	-0.0920	25.71	0.53	-0.050			
0.9942	63627.89	3.1100	3.1099	-0.0916	25.71	0.53	-0.050			
0.9943	63633.74	3.1090	3.1088	-0.0913	25.71	0.53	-0.050			
0.9944	63639.58	3.1080	3.1079	-0.0910	25.71	0.53	-0.050			
0.9945	63645.39	3.1070	3.1069	-0.0906	25.71	0.53	-0.050			
0.9945	63651.13	3.1060	3.1059	-0.0906	25.72	0.54	-0.050			
0.9946	63656.91	3.1050	3.1049	-0.0903	25.72	0.54	-0.050			
0.9947	63662.68	3.1040	3.1039	-0.0900	25.72	0.54	-0.050			
0.9948	63668.43	3.1030	3.1031	-0.0897	25.72	0.54	-0.050			
0.9949	63674.16	3.1020	3.1024	-0.0894	25.72	0.54	-0.050			
0.9950	63679.87	3.1010	3.1011	-0.0891	25.72	0.54	-0.050			
0.9951	63685.45	3.1000	3.1000	-0.0886	25.72	0.54	-0.050			
0.9952	63691.07	3.0990	3.0990	-0.0885	25.72	0.54	-0.050			
0.9953	63696.73	3.0980	3.0980	-0.0883	25.72	0.54	-0.050			
0.9953	63702.37	3.0970	3.0969	-0.0881	25.73	0.55	-0.050			
0.9954	63708.00	3.0960	3.0959	-0.0879	25.73	0.55	-0.050			
0.9955	63713.62	3.0950	3.0950	-0.0877	25.73	0.55	-0.050			
0.9956	63719.23	3.0940	3.0940	-0.0875	25.73	0.55	-0.050			
0.9957	63724.82	3.0930	3.0931	-0.0873	25.73	0.55	-0.050			
0.9958	63730.30	3.0920	3.0922	-0.0871	25.73	0.55	-0.050			
0.9959	63735.97	3.0910	3.0910	-0.0867	25.73	0.55	-0.050			
0.9960	63741.51	3.0900	3.0900	-0.0865	25.74	0.56	-0.050			
0.9960	63747.05	3.0890	3.0890	-0.0863	25.74	0.56	-0.050			
0.9961	63752.57	3.0880	3.0880	-0.0861	25.74	0.56	-0.050			
0.9962	63758.07	3.0870	3.0869	-0.0859	25.74	0.56	-0.050			
0.9963	63763.68	3.0860	3.0859	-0.0859	25.74	0.56	-0.050			
0.9964	63769.17	3.0850	3.0849	-0.0856	25.75	0.57	-0.050			
0.9965	63774.64	3.0840	3.0840	-0.0854	25.75	0.57	-0.050			
0.9966	63780.19	3.0830	3.0832	-0.0849	25.75	0.57	-0.050			
0.9967	63785.61	3.0820	3.0821	-0.0846	25.75	0.57	-0.050			
0.9967	63791.02	3.0810	3.0810	-0.0843	25.75	0.57	-0.050			
0.9968	63796.40	3.0800	3.0799	-0.0840	25.75	0.57	-0.050			
0.9969	63801.85	3.0790	3.0789	-0.0838	25.75	0.57	-0.050			
0.9970	63807.20	3.0780	3.0779	-0.0834	25.75	0.57	-0.050			
0.9971	63812.53	3.0770	3.0769	-0.0830	25.76	0.58	-0.050			
0.9972	63817.69	3.0760	3.0760	-0.0830	25.76	0.58	-0.050			
0.9972	63822.99	3.0750	3.0750	-0.0827	25.76	0.58	-0.050			
0.9973	63828.28	3.0740	3.0739	-0.0824	25.76	0.58	-0.050			
0.9974	63833.54	3.0730	3.0729	-0.0821	25.76	0.58	-0.050			
0.9975	63838.79	3.0720	3.0722	-0.0818	25.76	0.58	-0.050			
0.9976	63843.93	3.0710	3.0710	-0.0815	25.76	0.58	-0.050			
0.9976	63849.14	3.0700	3.0700	-0.0812	25.76	0.58	-0.050			
0.9977	63854.32	3.0690	3.0690	-0.0810	25.76	0.58	-0.050			
0.9978	63859.50	3.0680	3.0680	-0.0808	25.76	0.58	-0.050			
0.9979	63864.66	3.0670	3.0669	-0.0805	25.77	0.59	-0.050			
0.9980	63869.81	3.0660	3.0659	-0.0803	25.77	0.59	-0.050			
0.9980	63874.94	3.0650	3.0649	-0.0801	25.77	0.59	-0.050			
0.9981	63880.06	3.0640	3.0640	-0.0798	25.77	0.59	-0.050			
0.9982	63885.06	3.0630	3.0631	-0.0795	25.77	0.59	-0.050			
0.9983	63890.25	3.0620	3.0621	-0.0792	25.77	0.59	-0.050			
0.9984	63895.31	3.0610	3.0609	-0.0789	25.77	0.59	-0.050			
0.9984	63900.35	3.0600	3.0599	-0.0787	25.77	0.59	-0.050			
0.9985	63905.38	3.0590	3.0590	-0.0784	25.78	0.60	-0.050			
0.9986	63910.39	3.0580	3.0580	-0.0782	25.78	0.60	-0.050			
0.9987	63915.39	3.0570	3.0570	-0.0780	25.78	0.60	-0.050			
0.9988	63920.55	3.0560	3.0560	-0.0779	25.78	0.60	-0.050			
0.9988	63925.52	3.0550	3.0550	-0.0775	25.78	0.60	-0.050			
0.9989	63930.32	3.0540	3.0540	-0.0775	25.79	0.61	-0.050			
0.9990	63935.27	3.0530	3.0528	-0.0773	25.79	0.61	-0.050			
0.9991	63940.21	3.0520	3.0522	-0.0770	25.79	0.61	-0.050			
0.9991	63945.13	3.0510	3.0512	-0.0768	25.79	0.61	-0.050			
0.9992	63950.04	3.0500	3.0500	-0.0765	25.79	0.61	-0.050			
0.9993	63954.80	3.0490	3.0490	-0.0762	25.79	0.61	-0.050			
0.9994	63959.58	3.0480	3.0480	-0.0761	25.80	0.62	-0.050			
0.9994	63964.45	3.0470	3.0470	-0.0760	25.80	0.62	-0.050			
0.9995	63969.31	3.0460	3.0460	-0.0759	25.80	0.62	-0.050			
0.9996	63974.16	3.0450	3.0450	-0.0758	25.80	0.62	-0.050			
0.9997	63979.01	3.0440	3.0440	-0.0757	25.80	0.62	-0.050			
0.9997	63983.85	3.0430	3.0430	-0.0755	25.81	0.63	-0.050			
0.9998	63988.56	3.0420	3.0419	-0.0752	25.81	0.63	-0.050			
0.9999	63993.37	3.0410	3.0413	-0.0752	25.81	0.63	-0.050			
1.0000	63998.18	3.0400	3.0402	-0.0751	25.81	0.63	-0.050			
1.0001	64003.32	3.0390	3.0389	-0.0744	25.81	0.63	-0.050			
1.0001	64008.08	3.0380	3.0379	-0.0741	25.81	0.63	-0.050			
1.0002	64012.81	3.0370	3.0369	-0.0739	25.81	0.63	-0.050			
1.0003	64017.53	3.0360	3.0358	-0.0736	25.81	0.63	-0.050			
1.0003	64022.24	3.0350	3.0348	-0.0734	25.81	0.63	-0.050			
1.0004	64027.28	3.0340	3.0338	-0.0735	25.81	0.63	-0.050			
1.0005	64031.97	3.0330	3.0328	-0.0731	25.81	0.63	-0.050			
1.0006	64036.63	3.0320	3.0318	-0.0726	25.81	0.63	-0.050			
1.0006	64041.00	3.0310	3.0308	-0.0728	25.81	0.63	-0.050			
1.0007	64045.65	3.0300	3.0300	-0.0725	25.81	0.63	-0.050			
1.0008	64050.29	3.0290	3.0290	-0.0723	25.81	0.63	-0.050	-0.394	0.734	
1.0009	64054.88	3.0280	3.0282	-0.0719	25.81	0.63	-0.050			
1.0009	64059.48	3.0270	3.0268	-0.0717	25.81	0.63	-0.050			
1.0010	64064.05	3.0260	3.0257	-0.0714	25.82	0.64	-0.050			
1.0011	64068.62	3.0250	3.0247	-0.0712	25.82	0.64	-0.050			
1.0011	64073.18	3.0240	3.0238	-0.0709	25.82	0.64	-0.050			
1.0012	64077.71	3.0230	3.0229	-0.0706	25.82	0.64	-0.050			
1.0013	64082.22	3.0220	3.0219	-0.0703	25.82	0.64	-0.050			
1.0014	64086.71	3.0210	3.0209	-0.0701	25.82	0.64	-0.050			
1.0014	64091.18	3.0200	3.0199	-0.0698	25.83	0.65	-0.050			
1.0015	64095.43	3.0190	3.0190	-0.0692	25.83	0.65	-0.050			
1.0016	64099.86	3.0180	3.0182	-0.0691	25.83	0.65	-0.050			
1.0016	64104.27	3.0170	3.0172	-0.0689	25.83	0.65	-0.050			
1.0017	64108.74	3.0160	3.0159	-0.0686	25.83	0.65	-0.050			
1.0018	64113.12	3.0150	3.0150	-0.0684	25.83	0.65	-0.050			
1.0018	64117.49	3.0140	3.0140	-0.0682	25.84	0.66	-0.050			
1.0019	64121.85	3.0130	3.0131	-0.0680	25.84	0.66	-0.050			
1.0020	64126.19	3.0120	3.0121	-0.0678	25.84	0.66	-0.050			
1.0020	64130.94	3.0110	3.0110	-0.0677	25.84	0.66	-0.050			
1.0021	64135.26	3.0100	3.0099	-0.0672	25.84	0.66	-0.050			
1.0022	64139.55	3.0090	3.0089	-0.0668	25.84	0.66	-0.050			
1.0022	64143.81	3.0080	3.0079	-0.0664	25.85	0.67	-0.050			
1.0023	64148.04	3.0070	3.0069	-0.0659	25.85	0.67	-0.050			
1.0024	64152.24	3.0060	3.0059	-0.0655	25.85	0.67	-0.050			
1.0024	64156.42	3.0050	3.0051	-0.0650	25.85	0.67	-0.050			
1.0025	64160.45	3.0040	3.0040	-0.0657	25.85	0.67	-0.050			
1.0026	64164.65	3.0030	3.0030	-0.0656	25.85	0.67	-0.050			
1.0026	64168.84	3.0020	3.0020	-0.0654	25.86	0.68	-0.050			
