Ah_balance (normalized)	Ah_balance (mAh)	Voltage - fit (V)	Voltage -  interpolate (V)	dQ/dV (1/V)	Temperature (°C)	Temperature - diff (°C)	Current (C)	R_DC 0ms (mOhm)	R_DC 50ms (mOhm)	R_DC 50 ms PEC (mOhm)
0.0002	15.24	4.1840	4.1838	-0.3444	24.77	-0.00	-0.050			
0.0006	38.47	4.1830	4.1828	-0.3827	24.78	0.01	-0.050			
0.0010	64.44	4.1820	4.1817	-0.4158	24.79	0.02	-0.050			
0.0014	92.53	4.1810	4.1808	-0.4427	24.79	0.02	-0.050			
0.0019	122.39	4.1800	4.1798	-0.4657	24.79	0.02	-0.050			
0.0024	153.60	4.1790	4.1790	-0.4852	24.79	0.02	-0.050			
0.0029	185.84	4.1780	4.1780	-0.5023	24.80	0.03	-0.050			
0.0034	219.09	4.1770	4.1770	-0.5178	24.79	0.02	-0.050			
0.0040	253.21	4.1760	4.1760	-0.5321	24.79	0.02	-0.050			
0.0045	288.44	4.1750	4.1751	-0.5447	24.79	0.02	-0.050			
0.0051	324.27	4.1740	4.1740	-0.5563	24.78	0.01	-0.050			
0.0056	360.73	4.1730	4.1731	-0.5670	24.78	0.01	-0.050			
0.0063	400.55	4.1720	4.1720	-0.5819	24.77	0.00	-0.050			
0.0068	438.24	4.1710	4.1711	-0.5893	24.79	0.02	-0.050			
0.0075	476.99	4.1700	4.1700	-0.5973	24.79	0.02	-0.050			
0.0081	515.88	4.1690	4.1690	-0.6046	24.79	0.02	-0.050			
0.0087	555.04	4.1680	4.1680	-0.6106	24.78	0.01	-0.050			
0.0093	594.42	4.1670	4.1671	-0.6170	24.79	0.02	-0.050			
0.0099	634.29	4.1660	4.1661	-0.6227	24.81	0.04	-0.050			
0.0105	674.54	4.1650	4.1650	-0.6283	24.84	0.07	-0.050			
0.0112	715.10	4.1640	4.1641	-0.6329	24.87	0.10	-0.050			
0.0118	756.04	4.1630	4.1631	-0.6380	24.88	0.11	-0.050			
0.0125	797.11	4.1620	4.1621	-0.6429	24.90	0.13	-0.050			
0.0131	838.56	4.1610	4.1610	-0.6477	24.91	0.14	-0.050			
0.0138	880.23	4.1600	4.1600	-0.6521	24.90	0.13	-0.050			
0.0144	922.07	4.1590	4.1590	-0.6568	24.88	0.11	-0.050			
0.0151	964.37	4.1580	4.1580	-0.6604	24.87	0.10	-0.050			
0.0157	1006.74	4.1570	4.1570	-0.6642	24.85	0.08	-0.050			
0.0164	1049.56	4.1560	4.1559	-0.6677	24.81	0.04	-0.050			
0.0171	1092.73	4.1550	4.1550	-0.6706	24.79	0.02	-0.050			
0.0178	1136.18	4.1540	4.1540	-0.6737	24.76	-0.01	-0.050			
0.0184	1179.73	4.1530	4.1530	-0.6759	24.74	-0.03	-0.050			
0.0191	1223.23	4.1520	4.1521	-0.6787	24.71	-0.06	-0.050			
0.0198	1266.90	4.1510	4.1510	-0.6815	24.68	-0.09	-0.050	0.644	0.726	
0.0205	1310.57	4.1500	4.1500	-0.6838	24.66	-0.11	-0.050			
0.0212	1354.46	4.1490	4.1491	-0.6863	24.63	-0.14	-0.050			
0.0219	1398.40	4.1480	4.1480	-0.6885	24.61	-0.16	-0.050			
0.0225	1442.34	4.1470	4.1470	-0.6916	24.58	-0.19	-0.050			
0.0232	1486.51	4.1460	4.1460	-0.6939	24.57	-0.20	-0.050			
0.0239	1531.09	4.1450	4.1449	-0.6961	24.57	-0.20	-0.050			
0.0246	1575.61	4.1440	4.1440	-0.6982	24.56	-0.21	-0.050			
0.0253	1620.41	4.1430	4.1430	-0.7009	24.53	-0.24	-0.050			
0.0260	1665.23	4.1420	4.1419	-0.7028	24.51	-0.26	-0.050			
0.0267	1710.22	4.1410	4.1410	-0.7049	24.47	-0.30	-0.050			
0.0274	1755.36	4.1400	4.1400	-0.7074	24.44	-0.33	-0.050			
0.0281	1800.69	4.1390	4.1390	-0.7100	24.41	-0.36	-0.050			
0.0288	1846.05	4.1380	4.1380	-0.7134	24.39	-0.38	-0.050			
0.0296	1891.93	4.1370	4.1370	-0.7169	24.37	-0.40	-0.050			
0.0303	1937.81	4.1360	4.1360	-0.7200	24.35	-0.42	-0.050			
0.0310	1984.15	4.1350	4.1350	-0.7232	24.32	-0.45	-0.050			
0.0317	2030.62	4.1340	4.1340	-0.7258	24.28	-0.49	-0.050			
0.0325	2077.28	4.1330	4.1331	-0.7283	24.26	-0.51	-0.050			
0.0332	2124.02	4.1320	4.1320	-0.7312	24.26	-0.51	-0.050			
0.0339	2170.77	4.1310	4.1309	-0.7330	24.28	-0.49	-0.050			
0.0347	2217.91	4.1300	4.1300	-0.7350	24.31	-0.46	-0.050			
0.0354	2265.10	4.1290	4.1290	-0.7373	24.37	-0.40	-0.050			
0.0361	2312.37	4.1280	4.1281	-0.7399	24.43	-0.34	-0.050			
0.0369	2359.87	4.1270	4.1270	-0.7420	24.47	-0.30	-0.050			
0.0376	2407.59	4.1260	4.1260	-0.7438	24.50	-0.27	-0.050			
0.0384	2455.47	4.1250	4.1250	-0.7463	24.53	-0.24	-0.050			
0.0391	2503.47	4.1240	4.1241	-0.7484	24.56	-0.21	-0.050			
0.0399	2551.46	4.1230	4.1230	-0.7499	24.58	-0.19	-0.050	0.558	0.761	
0.0406	2599.51	4.1220	4.1220	-0.7519	24.60	-0.17	-0.050			
0.0414	2647.71	4.1210	4.1209	-0.7538	24.62	-0.15	-0.050			
0.0421	2695.94	4.1200	4.1200	-0.7549	24.63	-0.14	-0.050			
0.0429	2744.32	4.1190	4.1189	-0.7559	24.65	-0.12	-0.050			
0.0436	2792.69	4.1180	4.1181	-0.7572	24.66	-0.11	-0.050			
0.0444	2841.30	4.1170	4.1170	-0.7577	24.69	-0.08	-0.050			
0.0452	2889.97	4.1160	4.1160	-0.7593	24.70	-0.07	-0.050			
0.0459	2938.80	4.1150	4.1150	-0.7607	24.72	-0.05	-0.050			
0.0467	2987.61	4.1140	4.1140	-0.7615	24.74	-0.03	-0.050			
0.0474	3036.55	4.1130	4.1130	-0.7625	24.76	-0.01	-0.050			
0.0482	3085.28	4.1120	4.1120	-0.7637	24.75	-0.02	-0.050			
0.0490	3134.05	4.1110	4.1110	-0.7648	24.72	-0.05	-0.050			
0.0497	3183.11	4.1100	4.1100	-0.7660	24.68	-0.09	-0.050			
0.0505	3232.27	4.1090	4.1090	-0.7666	24.64	-0.13	-0.050			
0.0513	3281.17	4.1080	4.1081	-0.7676	24.61	-0.16	-0.050			
0.0520	3330.30	4.1070	4.1069	-0.7685	24.59	-0.18	-0.050			
0.0528	3379.69	4.1060	4.1059	-0.7692	24.57	-0.20	-0.050			
0.0536	3428.70	4.1050	4.1051	-0.7700	24.55	-0.22	-0.050			
0.0543	3477.92	4.1040	4.1040	-0.7708	24.54	-0.23	-0.050			
0.0551	3527.30	4.1030	4.1030	-0.7721	24.55	-0.22	-0.050			
0.0559	3576.76	4.1020	4.1020	-0.7729	24.56	-0.21	-0.050			
0.0567	3626.25	4.1010	4.1010	-0.7738	24.57	-0.20	-0.050			
0.0574	3676.11	4.1000	4.1001	-0.7748	24.58	-0.19	-0.050			
0.0582	3725.83	4.0990	4.0990	-0.7754	24.58	-0.19	-0.050			
0.0590	3775.56	4.0980	4.0979	-0.7761	24.57	-0.20	-0.050			
0.0598	3825.31	4.0970	4.0971	-0.7772	24.57	-0.20	-0.050	0.345	0.619	
0.0605	3874.95	4.0960	4.0960	-0.7785	24.57	-0.20	-0.050			
0.0613	3924.71	4.0950	4.0950	-0.7790	24.57	-0.20	-0.050			
0.0621	3974.75	4.0940	4.0940	-0.7795	24.57	-0.20	-0.050			
0.0629	4024.62	4.0930	4.0930	-0.7801	24.54	-0.23	-0.050			
0.0637	4074.25	4.0920	4.0920	-0.7809	24.53	-0.24	-0.050			
0.0644	4124.24	4.0910	4.0910	-0.7816	24.50	-0.27	-0.050			
0.0652	4174.33	4.0900	4.0899	-0.7825	24.49	-0.28	-0.050			
0.0660	4224.55	4.0890	4.0890	-0.7835	24.47	-0.30	-0.050			
0.0668	4274.63	4.0880	4.0881	-0.7841	24.48	-0.29	-0.050			
0.0676	4324.72	4.0870	4.0870	-0.7849	24.49	-0.28	-0.050			
0.0684	4375.12	4.0860	4.0860	-0.7862	24.51	-0.26	-0.050			
0.0691	4425.20	4.0850	4.0850	-0.7881	24.54	-0.23	-0.050			
0.0699	4475.41	4.0840	4.0840	-0.7896	24.56	-0.21	-0.050			
0.0707	4526.05	4.0830	4.0830	-0.7913	24.58	-0.19	-0.050			
0.0715	4576.75	4.0820	4.0820	-0.7925	24.59	-0.18	-0.050			
0.0723	4627.68	4.0810	4.0811	-0.7937	24.60	-0.17	-0.050			
0.0731	4678.42	4.0800	4.0801	-0.7955	24.62	-0.15	-0.050			
0.0739	4729.28	4.0790	4.0789	-0.7969	24.66	-0.11	-0.050			
0.0747	4780.58	4.0780	4.0780	-0.7976	24.68	-0.09	-0.050			
0.0755	4831.62	4.0770	4.0770	-0.7986	24.71	-0.06	-0.050			
0.0763	4882.92	4.0760	4.0760	-0.7993	24.72	-0.05	-0.050			
0.0771	4934.24	4.0750	4.0750	-0.8008	24.75	-0.02	-0.050			
0.0779	4985.60	4.0740	4.0741	-0.8021	24.78	0.01	-0.050			
0.0787	5037.03	4.0730	4.0730	-0.8033	24.79	0.02	-0.050			
0.0795	5088.40	4.0720	4.0719	-0.8041	24.81	0.04	-0.050			
0.0803	5139.78	4.0710	4.0711	-0.8059	24.81	0.04	-0.050	0.552	0.706	
0.0811	5191.47	4.0700	4.0701	-0.8073	24.81	0.04	-0.050			
0.0819	5243.18	4.0690	4.0690	-0.8082	24.77	0.00	-0.050			
0.0827	5294.89	4.0680	4.0679	-0.8088	24.76	-0.01	-0.050			
0.0835	5346.86	4.0670	4.0670	-0.8092	24.75	-0.02	-0.050			
0.0844	5398.60	4.0660	4.0660	-0.8096	24.75	-0.02	-0.050			
0.0852	5450.31	4.0650	4.0650	-0.8098	24.75	-0.02	-0.050			
0.0860	5502.12	4.0640	4.0640	-0.8111	24.76	-0.01	-0.050			
0.0868	5554.22	4.0630	4.0630	-0.8119	24.77	0.00	-0.050			
0.0876	5606.49	4.0620	4.0619	-0.8124	24.76	-0.01	-0.050			
0.0884	5658.78	4.0610	4.0610	-0.8124	24.73	-0.04	-0.050			
0.0892	5710.69	4.0600	4.0600	-0.8125	24.69	-0.08	-0.050			
0.0900	5762.79	4.0590	4.0590	-0.8125	24.67	-0.10	-0.050			
0.0909	5815.13	4.0580	4.0580	-0.8137	24.65	-0.12	-0.050			
0.0917	5867.13	4.0570	4.0570	-0.8143	24.63	-0.14	-0.050			
0.0925	5919.15	4.0560	4.0560	-0.8139	24.61	-0.16	-0.050			
0.0933	5971.17	4.0550	4.0549	-0.8132	24.59	-0.18	-0.050			
0.0941	6023.29	4.0540	4.0540	-0.8132	24.59	-0.18	-0.050			
0.0949	6075.06	4.0530	4.0531	-0.8134	24.59	-0.18	-0.050			
0.0957	6127.03	4.0520	4.0519	-0.8137	24.58	-0.19	-0.050			
0.0965	6178.85	4.0510	4.0510	-0.8139	24.56	-0.21	-0.050			
0.0974	6230.95	4.0500	4.0501	-0.8146	24.55	-0.22	-0.050			
0.0982	6283.09	4.0490	4.0490	-0.8156	24.53	-0.24	-0.050			
0.0990	6335.16	4.0480	4.0480	-0.8168	24.52	-0.25	-0.050			
0.0998	6387.38	4.0470	4.0470	-0.8178	24.50	-0.27	-0.050			
0.1006	6439.68	4.0460	4.0460	-0.8193	24.49	-0.28	-0.050			
0.1014	6491.84	4.0450	4.0450	-0.8201	24.49	-0.28	-0.050			
0.1023	6544.32	4.0440	4.0440	-0.8216	24.50	-0.27	-0.050			
0.1031	6597.00	4.0430	4.0430	-0.8227	24.51	-0.26	-0.050			
0.1039	6649.94	4.0420	4.0420	-0.8243	24.52	-0.25	-0.050			
0.1047	6702.75	4.0410	4.0410	-0.8254	24.51	-0.26	-0.050			
0.1056	6755.87	4.0400	4.0400	-0.8263	24.50	-0.27	-0.050			
0.1064	6808.61	4.0390	4.0389	-0.8272	24.49	-0.28	-0.050			
0.1072	6861.47	4.0380	4.0380	-0.8289	24.51	-0.26	-0.050			
0.1080	6914.63	4.0370	4.0370	-0.8302	24.54	-0.23	-0.050			
0.1089	6967.83	4.0360	4.0360	-0.8314	24.58	-0.19	-0.050			
0.1097	7021.54	4.0350	4.0350	-0.8328	24.61	-0.16	-0.050			
0.1105	7074.84	4.0340	4.0340	-0.8335	24.63	-0.14	-0.050			
0.1114	7128.10	4.0330	4.0330	-0.8344	24.65	-0.12	-0.050			
0.1122	7181.58	4.0320	4.0320	-0.8352	24.67	-0.10	-0.050			
0.1130	7235.17	4.0310	4.0311	-0.8362	24.69	-0.08	-0.050			
0.1139	7288.52	4.0300	4.0299	-0.8368	24.71	-0.06	-0.050			
0.1147	7342.08	4.0290	4.0289	-0.8378	24.72	-0.05	-0.050			
0.1156	7395.57	4.0280	4.0281	-0.8387	24.73	-0.04	-0.050			
0.1164	7449.15	4.0270	4.0270	-0.8395	24.74	-0.03	-0.050			
0.1172	7502.95	4.0260	4.0261	-0.8406	24.75	-0.02	-0.050			
0.1181	7556.74	4.0250	4.0250	-0.8418	24.75	-0.02	-0.050			
0.1189	7610.56	4.0240	4.0240	-0.8434	24.76	-0.01	-0.050			
0.1198	7664.68	4.0230	4.0230	-0.8446	24.78	0.01	-0.050	0.574	0.651	
0.1206	7718.68	4.0220	4.0220	-0.8460	24.81	0.04	-0.050			
0.1215	7772.88	4.0210	4.0210	-0.8476	24.84	0.07	-0.050			
0.1223	7827.05	4.0200	4.0200	-0.8489	24.85	0.08	-0.050			
0.1232	7881.63	4.0190	4.0190	-0.8498	24.84	0.07	-0.050			
0.1240	7935.91	4.0180	4.0180	-0.8504	24.82	0.05	-0.050			
0.1249	7991.08	4.0170	4.0170	-0.8506	24.78	0.01	-0.050			
0.1257	8045.69	4.0160	4.0159	-0.8512	24.73	-0.04	-0.050			
0.1266	8100.45	4.0150	4.0149	-0.8512	24.69	-0.08	-0.050			
0.1274	8155.09	4.0140	4.0141	-0.8515	24.67	-0.10	-0.050			
0.1283	8209.57	4.0130	4.0129	-0.8512	24.66	-0.11	-0.050			
0.1291	8264.22	4.0120	4.0120	-0.8510	24.63	-0.14	-0.050			
0.1300	8318.73	4.0110	4.0110	-0.8514	24.60	-0.17	-0.050			
0.1308	8373.12	4.0100	4.0100	-0.8514	24.56	-0.21	-0.050			
0.1317	8427.43	4.0090	4.0090	-0.8513	24.53	-0.24	-0.050			
0.1325	8481.80	4.0080	4.0080	-0.8516	24.52	-0.25	-0.050			
0.1334	8536.13	4.0070	4.0070	-0.8517	24.51	-0.26	-0.050			
0.1342	8590.44	4.0060	4.0060	-0.8525	24.50	-0.27	-0.050			
0.1351	8644.59	4.0050	4.0050	-0.8530	24.49	-0.28	-0.050			
0.1359	8698.71	4.0040	4.0040	-0.8545	24.50	-0.27	-0.050			
0.1368	8753.22	4.0030	4.0030	-0.8562	24.49	-0.28	-0.050			
0.1376	8807.72	4.0020	4.0019	-0.8575	24.48	-0.29	-0.050			
0.1385	8862.55	4.0010	4.0010	-0.8597	24.44	-0.33	-0.050			
0.1393	8917.59	4.0000	4.0001	-0.8616	24.38	-0.39	-0.050			
0.1402	8973.19	3.9990	3.9990	-0.8635	24.34	-0.43	-0.050			
0.1411	9028.61	3.9980	3.9980	-0.8662	24.31	-0.46	-0.050			
0.1419	9084.22	3.9970	3.9969	-0.8688	24.31	-0.46	-0.050			
0.1428	9139.95	3.9960	3.9960	-0.8707	24.33	-0.44	-0.050			
0.1437	9195.72	3.9950	3.9950	-0.8721	24.33	-0.44	-0.050			
0.1446	9251.69	3.9940	3.9940	-0.8739	24.36	-0.41	-0.050			
0.1454	9308.01	3.9930	3.9930	-0.8757	24.43	-0.34	-0.050			
0.1463	9364.26	3.9920	3.9920	-0.8766	24.48	-0.29	-0.050			
0.1472	9420.57	3.9910	3.9910	-0.8778	24.53	-0.24	-0.050			
0.1481	9476.83	3.9900	3.9900	-0.8791	24.56	-0.21	-0.050			
0.1490	9533.19	3.9890	3.9889	-0.8808	24.58	-0.19	-0.050			
0.1498	9589.61	3.9880	3.9881	-0.8812	24.60	-0.17	-0.050			
0.1507	9646.15	3.9870	3.9870	-0.8818	24.61	-0.16	-0.050			
0.1516	9702.67	3.9860	3.9861	-0.8822	24.62	-0.15	-0.050			
0.1525	9759.15	3.9850	3.9850	-0.8827	24.63	-0.14	-0.050			
0.1534	9815.36	3.9840	3.9840	-0.8837	24.64	-0.13	-0.050			
0.1542	9871.90	3.9830	3.9830	-0.8852	24.65	-0.12	-0.050			
0.1551	9928.50	3.9820	3.9819	-0.8866	24.67	-0.10	-0.050			
0.1560	9985.29	3.9810	3.9810	-0.8875	24.65	-0.12	-0.050			
0.1569	10042.23	3.9800	3.9800	-0.8884	24.68	-0.09	-0.050			
0.1578	10099.14	3.9790	3.9790	-0.8893	24.71	-0.06	-0.050			
0.1587	10155.98	3.9780	3.9780	-0.8901	24.72	-0.05	-0.050			
0.1596	10212.84	3.9770	3.9770	-0.8906	24.71	-0.06	-0.050			
0.1605	10269.92	3.9760	3.9760	-0.8920	24.69	-0.08	-0.050	0.540	0.733	
0.1614	10327.22	3.9750	3.9749	-0.8935	24.65	-0.12	-0.050			
0.1623	10384.31	3.9740	3.9740	-0.8945	24.61	-0.16	-0.050			
0.1632	10441.71	3.9730	3.9730	-0.8956	24.57	-0.20	-0.050			
0.1640	10499.12	3.9720	3.9720	-0.8967	24.55	-0.22	-0.050			
0.1649	10556.54	3.9710	3.9711	-0.8979	24.55	-0.22	-0.050			
0.1658	10613.94	3.9700	3.9700	-0.8987	24.55	-0.22	-0.050			
0.1667	10671.61	3.9690	3.9690	-0.8994	24.56	-0.21	-0.050			
0.1676	10729.22	3.9680	3.9680	-0.9005	24.57	-0.20	-0.050			
0.1685	10787.19	3.9670	3.9670	-0.9011	24.57	-0.20	-0.050			
0.1695	10845.04	3.9660	3.9659	-0.9013	24.57	-0.20	-0.050			
0.1704	10902.73	3.9650	3.9650	-0.9012	24.55	-0.22	-0.050			
0.1713	10960.72	3.9640	3.9640	-0.8994	24.53	-0.24	-0.050			
0.1722	11018.30	3.9630	3.9630	-0.8995	24.51	-0.26	-0.050			
0.1731	11076.04	3.9620	3.9621	-0.8998	24.51	-0.26	-0.050			
0.1740	11133.82	3.9610	3.9610	-0.8996	24.51	-0.26	-0.050			
0.1749	11191.45	3.9600	3.9601	-0.8996	24.51	-0.26	-0.050			
0.1758	11248.91	3.9590	3.9590	-0.8992	24.53	-0.24	-0.050			
0.1767	11306.36	3.9580	3.9580	-0.8987	24.53	-0.24	-0.050			
0.1776	11363.71	3.9570	3.9570	-0.8986	24.54	-0.23	-0.050			
0.1785	11421.12	3.9560	3.9560	-0.8985	24.53	-0.24	-0.050			
0.1793	11478.19	3.9550	3.9551	-0.8989	24.50	-0.27	-0.050			
0.1802	11535.59	3.9540	3.9540	-0.8993	24.45	-0.32	-0.050	0.522	0.705	
0.1811	11592.65	3.9530	3.9530	-0.9004	24.43	-0.34	-0.050			
0.1820	11650.34	3.9520	3.9519	-0.9007	24.43	-0.34	-0.050			
0.1829	11707.84	3.9510	3.9510	-0.9009	24.48	-0.29	-0.050			
0.1838	11765.54	3.9500	3.9499	-0.9012	24.52	-0.25	-0.050			
0.1847	11823.45	3.9490	3.9490	-0.9022	24.56	-0.21	-0.050			
0.1856	11881.36	3.9480	3.9480	-0.9028	24.58	-0.19	-0.050			
0.1865	11939.11	3.9470	3.9470	-0.9039	24.60	-0.17	-0.050			
0.1875	11997.08	3.9460	3.9461	-0.9055	24.62	-0.15	-0.050			
0.1884	12055.15	3.9450	3.9450	-0.9074	24.64	-0.13	-0.050			
0.1893	12113.01	3.9440	3.9440	-0.9100	24.65	-0.12	-0.050			
0.1902	12170.98	3.9430	3.9431	-0.9105	24.67	-0.10	-0.050			
0.1911	12228.99	3.9420	3.9421	-0.9126	24.65	-0.12	-0.050			
0.1920	12287.35	3.9410	3.9409	-0.9146	24.63	-0.14	-0.050			
0.1929	12345.91	3.9400	3.9400	-0.9165	24.61	-0.16	-0.050			
0.1938	12404.51	3.9390	3.9389	-0.9182	24.63	-0.14	-0.050			
0.1947	12463.44	3.9380	3.9379	-0.9196	24.64	-0.13	-0.050			
0.1957	12522.30	3.9370	3.9370	-0.9211	24.66	-0.11	-0.050			
0.1966	12581.47	3.9360	3.9360	-0.9234	24.68	-0.09	-0.050			
0.1975	12640.56	3.9350	3.9350	-0.9243	24.69	-0.08	-0.050			
0.1984	12700.10	3.9340	3.9340	-0.9260	24.69	-0.08	-0.050			
0.1994	12759.65	3.9330	3.9330	-0.9275	24.70	-0.07	-0.050			
0.2003	12819.41	3.9320	3.9320	-0.9290	24.71	-0.06	-0.050	0.143	0.644	
0.2012	12879.42	3.9310	3.9310	-0.9302	24.70	-0.07	-0.050			
0.2022	12939.23	3.9300	3.9299	-0.9309	24.71	-0.06	-0.050			
0.2031	12998.86	3.9290	3.9290	-0.9308	24.71	-0.06	-0.050			
0.2040	13058.65	3.9280	3.9280	-0.9310	24.71	-0.06	-0.050			
0.2050	13118.18	3.9270	3.9270	-0.9302	24.70	-0.07	-0.050			
0.2059	13177.65	3.9260	3.9260	-0.9299	24.69	-0.08	-0.050			
0.2068	13237.07	3.9250	3.9250	-0.9294	24.69	-0.08	-0.050			
0.2078	13296.33	3.9240	3.9240	-0.9292	24.69	-0.08	-0.050			
0.2087	13355.76	3.9230	3.9230	-0.9290	24.69	-0.08	-0.050			
0.2096	13415.09	3.9220	3.9220	-0.9294	24.69	-0.08	-0.050			
0.2105	13474.94	3.9210	3.9210	-0.9289	24.69	-0.08	-0.050			
0.2115	13534.24	3.9200	3.9200	-0.9293	24.67	-0.10	-0.050			
0.2124	13593.52	3.9190	3.9190	-0.9291	24.64	-0.13	-0.050			
0.2133	13652.93	3.9180	3.9180	-0.9299	24.60	-0.17	-0.050			
0.2143	13712.47	3.9170	3.9170	-0.9302	24.57	-0.20	-0.050			
0.2152	13771.88	3.9160	3.9159	-0.9297	24.57	-0.20	-0.050			
0.2161	13831.46	3.9150	3.9150	-0.9303	24.61	-0.16	-0.050			
0.2170	13891.04	3.9140	3.9140	-0.9302	24.63	-0.14	-0.050			
0.2180	13950.64	3.9130	3.9130	-0.9304	24.65	-0.12	-0.050			
0.2189	14010.24	3.9120	3.9120	-0.9303	24.67	-0.10	-0.050			
0.2198	14069.77	3.9110	3.9111	-0.9310	24.68	-0.09	-0.050	0.580	0.681	
0.2208	14129.40	3.9100	3.9100	-0.9310	24.68	-0.09	-0.050			
0.2217	14188.91	3.9090	3.9091	-0.9317	24.68	-0.09	-0.050			
0.2226	14248.57	3.9080	3.9080	-0.9320	24.67	-0.10	-0.050			
0.2236	14308.30	3.9070	3.9070	-0.9326	24.67	-0.10	-0.050			
0.2245	14367.89	3.9060	3.9060	-0.9325	24.67	-0.10	-0.050			
0.2254	14427.56	3.9050	3.9050	-0.9323	24.65	-0.12	-0.050			
0.2264	14487.22	3.9040	3.9039	-0.9326	24.67	-0.10	-0.050			
0.2273	14547.16	3.9030	3.9030	-0.9321	24.69	-0.08	-0.050			
0.2282	14606.75	3.9020	3.9019	-0.9324	24.70	-0.07	-0.050			
0.2292	14666.66	3.9010	3.9010	-0.9321	24.71	-0.06	-0.050			
0.2301	14726.27	3.9000	3.8999	-0.9310	24.72	-0.05	-0.050			
0.2310	14785.79	3.8990	3.8990	-0.9315	24.75	-0.02	-0.050			
0.2320	14845.62	3.8980	3.8979	-0.9308	24.78	0.01	-0.050			
0.2329	14905.47	3.8970	3.8970	-0.9300	24.77	-0.00	-0.050			
0.2338	14965.18	3.8960	3.8960	-0.9291	24.73	-0.04	-0.050			
0.2348	15024.86	3.8950	3.8950	-0.9275	24.70	-0.07	-0.050			
0.2357	15084.29	3.8940	3.8940	-0.9268	24.65	-0.12	-0.050			
0.2366	15143.62	3.8930	3.8929	-0.9256	24.61	-0.16	-0.050			
0.2375	15202.73	3.8920	3.8920	-0.9240	24.58	-0.19	-0.050			
0.2385	15261.56	3.8910	3.8910	-0.9228	24.56	-0.21	-0.050			
0.2394	15320.46	3.8900	3.8900	-0.9219	24.53	-0.24	-0.050			
0.2403	15379.28	3.8890	3.8890	-0.9207	24.53	-0.24	-0.050	0.506	0.698	
0.2412	15438.02	3.8880	3.8880	-0.9206	24.51	-0.26	-0.050			
0.2421	15496.83	3.8870	3.8870	-0.9198	24.48	-0.29	-0.050			
0.2431	15555.53	3.8860	3.8860	-0.9193	24.46	-0.31	-0.050			
0.2440	15614.23	3.8850	3.8850	-0.9191	24.45	-0.32	-0.050			
0.2449	15672.84	3.8840	3.8841	-0.9189	24.45	-0.32	-0.050			
0.2458	15731.56	3.8830	3.8829	-0.9191	24.43	-0.34	-0.050			
0.2467	15790.21	3.8820	3.8820	-0.9192	24.42	-0.35	-0.050			
0.2476	15848.99	3.8810	3.8810	-0.9193	24.39	-0.38	-0.050			
0.2486	15907.81	3.8800	3.8800	-0.9198	24.37	-0.40	-0.050			
0.2495	15966.57	3.8790	3.8789	-0.9197	24.35	-0.42	-0.050			
0.2504	16025.77	3.8780	3.8780	-0.9202	24.33	-0.44	-0.050			
0.2513	16084.99	3.8770	3.8769	-0.9204	24.33	-0.44	-0.050			
0.2523	16144.12	3.8760	3.8759	-0.9195	24.30	-0.47	-0.050			
0.2532	16203.30	3.8750	3.8750	-0.9190	24.27	-0.50	-0.050			
0.2541	16262.29	3.8740	3.8739	-0.9180	24.27	-0.50	-0.050			
0.2550	16321.31	3.8730	3.8730	-0.9163	24.31	-0.46	-0.050			
0.2559	16380.10	3.8720	3.8721	-0.9143	24.37	-0.40	-0.050			
0.2569	16439.07	3.8710	3.8710	-0.9115	24.44	-0.33	-0.050			
0.2578	16497.60	3.8700	3.8700	-0.9088	24.49	-0.28	-0.050			
0.2587	16555.79	3.8690	3.8690	-0.9059	24.53	-0.24	-0.050			
0.2596	16614.19	3.8680	3.8680	-0.9023	24.58	-0.19	-0.050			
0.2605	16671.92	3.8670	3.8670	-0.8989	24.61	-0.16	-0.050	0.548	0.722	
0.2614	16729.38	3.8660	3.8660	-0.8960	24.63	-0.14	-0.050			
0.2623	16786.52	3.8650	3.8650	-0.8921	24.64	-0.13	-0.050			
0.2632	16843.41	3.8640	3.8640	-0.8888	24.65	-0.12	-0.050			
0.2641	16899.78	3.8630	3.8630	-0.8859	24.64	-0.13	-0.050			
0.2649	16956.07	3.8620	3.8621	-0.8831	24.62	-0.15	-0.050			
0.2658	17012.48	3.8610	3.8609	-0.8802	24.63	-0.14	-0.050			
0.2667	17068.44	3.8600	3.8600	-0.8765	24.64	-0.13	-0.050			
0.2676	17124.32	3.8590	3.8590	-0.8744	24.66	-0.11	-0.050			
0.2684	17180.08	3.8580	3.8580	-0.8715	24.67	-0.10	-0.050			
0.2693	17235.61	3.8570	3.8570	-0.8690	24.67	-0.10	-0.050			
0.2702	17291.15	3.8560	3.8560	-0.8669	24.65	-0.12	-0.050			
0.2710	17346.79	3.8550	3.8550	-0.8642	24.62	-0.15	-0.050			
0.2719	17402.10	3.8540	3.8540	-0.8616	24.59	-0.18	-0.050			
0.2728	17457.37	3.8530	3.8530	-0.8590	24.57	-0.20	-0.050			
0.2736	17512.50	3.8520	3.8521	-0.8562	24.55	-0.22	-0.050			
0.2745	17567.58	3.8510	3.8510	-0.8537	24.52	-0.25	-0.050			
0.2753	17622.38	3.8500	3.8500	-0.8504	24.51	-0.26	-0.050			
0.2762	17676.76	3.8490	3.8491	-0.8463	24.51	-0.26	-0.050			
0.2770	17730.97	3.8480	3.8480	-0.8435	24.51	-0.26	-0.050			
0.2779	17784.86	3.8470	3.8470	-0.8394	24.51	-0.26	-0.050			
0.2787	17838.32	3.8460	3.8460	-0.8351	24.51	-0.26	-0.050			
0.2796	17891.53	3.8450	3.8449	-0.8321	24.51	-0.26	-0.050			
0.2804	17944.53	3.8440	3.8441	-0.8283	24.48	-0.29	-0.050	0.536	0.692	
0.2812	17997.15	3.8430	3.8430	-0.8247	24.46	-0.31	-0.050			
0.2820	18049.93	3.8420	3.8419	-0.8214	24.43	-0.34	-0.050			
0.2829	18102.42	3.8410	3.8410	-0.8174	24.43	-0.34	-0.050			
0.2837	18154.69	3.8400	3.8400	-0.8140	24.44	-0.33	-0.050			
0.2845	18206.63	3.8390	3.8389	-0.8101	24.47	-0.30	-0.050			
0.2853	18258.32	3.8380	3.8380	-0.8065	24.51	-0.26	-0.050			
0.2861	18309.84	3.8370	3.8370	-0.8030	24.53	-0.24	-0.050			
0.2869	18361.08	3.8360	3.8360	-0.7994	24.57	-0.20	-0.050			
0.2877	18412.27	3.8350	3.8349	-0.7964	24.60	-0.17	-0.050			
0.2885	18463.11	3.8340	3.8341	-0.7927	24.63	-0.14	-0.050			
0.2893	18513.82	3.8330	3.8331	-0.7891	24.66	-0.11	-0.050			
0.2901	18564.14	3.8320	3.8320	-0.7859	24.68	-0.09	-0.050			
0.2908	18614.24	3.8310	3.8310	-0.7824	24.70	-0.07	-0.050			
0.2916	18664.28	3.8300	3.8300	-0.7792	24.72	-0.05	-0.050			
0.2924	18714.00	3.8290	3.8291	-0.7758	24.73	-0.04	-0.050			
0.2932	18763.31	3.8280	3.8279	-0.7720	24.73	-0.04	-0.050			
0.2939	18812.67	3.8270	3.8270	-0.7691	24.72	-0.05	-0.050			
0.2947	18861.82	3.8260	3.8260	-0.7655	24.71	-0.06	-0.050			
0.2955	18910.53	3.8250	3.8251	-0.7614	24.71	-0.06	-0.050			
0.2962	18959.14	3.8240	3.8240	-0.7580	24.69	-0.08	-0.050			
0.2970	19007.68	3.8230	3.8229	-0.7550	24.70	-0.07	-0.050			
0.2977	19055.84	3.8220	3.8219	-0.7521	24.70	-0.07	-0.050			
0.2985	19103.84	3.8210	3.8211	-0.7497	24.71	-0.06	-0.050			
0.2992	19151.50	3.8200	3.8201	-0.7472	24.71	-0.06	-0.050			
0.3000	19198.98	3.8190	3.8190	-0.7450	24.71	-0.06	-0.050	0.495	0.616	
0.3007	19246.50	3.8180	3.8180	-0.7427	24.70	-0.07	-0.050			
0.3015	19293.63	3.8170	3.8170	-0.7404	24.68	-0.09	-0.050			
0.3022	19340.77	3.8160	3.8160	-0.7390	24.66	-0.11	-0.050			
0.3029	19387.85	3.8150	3.8150	-0.7372	24.65	-0.12	-0.050			
0.3037	19434.92	3.8140	3.8140	-0.7354	24.63	-0.14	-0.050			
0.3044	19481.90	3.8130	3.8129	-0.7340	24.63	-0.14	-0.050			
0.3051	19528.63	3.8120	3.8119	-0.7319	24.65	-0.12	-0.050			
0.3059	19575.42	3.8110	3.8110	-0.7304	24.67	-0.10	-0.050			
0.3066	19622.19	3.8100	3.8100	-0.7291	24.69	-0.08	-0.050			
0.3073	19668.81	3.8090	3.8091	-0.7281	24.70	-0.07	-0.050			
0.3081	19715.40	3.8080	3.8081	-0.7272	24.71	-0.06	-0.050			
0.3088	19762.00	3.8070	3.8070	-0.7265	24.71	-0.06	-0.050			
0.3095	19808.42	3.8060	3.8060	-0.7258	24.73	-0.04	-0.050			
0.3102	19855.02	3.8050	3.8050	-0.7248	24.73	-0.04	-0.050			
0.3110	19901.33	3.8040	3.8040	-0.7237	24.73	-0.04	-0.050			
0.3117	19947.52	3.8030	3.8030	-0.7226	24.74	-0.03	-0.050			
0.3124	19993.58	3.8020	3.8020	-0.7210	24.74	-0.03	-0.050			
0.3131	20039.50	3.8010	3.8010	-0.7200	24.73	-0.04	-0.050			
0.3138	20085.28	3.8000	3.7999	-0.7191	24.74	-0.03	-0.050			
0.3145	20131.15	3.7990	3.7990	-0.7187	24.75	-0.02	-0.050			
0.3153	20176.98	3.7980	3.7980	-0.7189	24.73	-0.04	-0.050			
0.3160	20222.90	3.7970	3.7971	-0.7191	24.73	-0.04	-0.050			
0.3167	20268.64	3.7960	3.7961	-0.7190	24.73	-0.04	-0.050			
0.3174	20314.60	3.7950	3.7950	-0.7200	24.74	-0.03	-0.050			
0.3181	20360.55	3.7940	3.7940	-0.7206	24.75	-0.02	-0.050			
0.3189	20406.61	3.7930	3.7930	-0.7216	24.75	-0.02	-0.050			
0.3196	20452.75	3.7920	3.7919	-0.7223	24.75	-0.02	-0.050			
0.3203	20498.82	3.7910	3.7910	-0.7239	24.75	-0.02	-0.050	0.313	0.614	
0.3210	20545.05	3.7900	3.7900	-0.7251	24.77	-0.00	-0.050			
0.3217	20591.23	3.7890	3.7891	-0.7260	24.77	0.00	-0.050			
0.3225	20637.74	3.7880	3.7880	-0.7273	24.78	0.01	-0.050			
0.3232	20684.31	3.7870	3.7870	-0.7290	24.79	0.02	-0.050			
0.3239	20730.96	3.7860	3.7859	-0.7309	24.79	0.02	-0.050			
0.3247	20777.65	3.7850	3.7850	-0.7332	24.80	0.03	-0.050			
0.3254	20824.67	3.7840	3.7840	-0.7358	24.81	0.04	-0.050			
0.3261	20871.67	3.7830	3.7831	-0.7381	24.83	0.06	-0.050			
0.3269	20919.01	3.7820	3.7820	-0.7405	24.83	0.06	-0.050			
0.3276	20966.11	3.7810	3.7810	-0.7436	24.84	0.07	-0.050			
0.3283	21013.51	3.7800	3.7800	-0.7464	24.85	0.08	-0.050			
0.3291	21061.26	3.7790	3.7790	-0.7495	24.86	0.09	-0.050			
0.3298	21109.23	3.7780	3.7780	-0.7528	24.87	0.10	-0.050			
0.3306	21157.31	3.7770	3.7770	-0.7564	24.88	0.11	-0.050			
0.3313	21205.79	3.7760	3.7760	-0.7598	24.89	0.12	-0.050			
0.3321	21254.12	3.7750	3.7750	-0.7639	24.91	0.14	-0.050			
0.3329	21303.21	3.7740	3.7741	-0.7675	24.93	0.16	-0.050			
0.3336	21352.51	3.7730	3.7731	-0.7713	24.93	0.16	-0.050			
0.3344	21401.99	3.7720	3.7719	-0.7754	24.95	0.18	-0.050			
0.3352	21451.68	3.7710	3.7710	-0.7793	24.95	0.18	-0.050			
0.3360	21501.93	3.7700	3.7700	-0.7837	24.95	0.18	-0.050			
0.3368	21552.18	3.7690	3.7690	-0.7878	24.94	0.17	-0.050			
0.3375	21602.78	3.7680	3.7680	-0.7920	24.94	0.17	-0.050			
0.3383	21653.75	3.7670	3.7670	-0.7957	24.94	0.17	-0.050			
0.3391	21704.72	3.7660	3.7660	-0.7995	24.95	0.18	-0.050			
0.3399	21755.93	3.7650	3.7650	-0.8036	24.95	0.18	-0.050	0.245	0.629	
0.3407	21807.24	3.7640	3.7640	-0.8082	24.94	0.17	-0.050			
0.3415	21858.99	3.7630	3.7630	-0.8130	24.93	0.16	-0.050			
0.3424	21911.05	3.7620	3.7621	-0.8175	24.93	0.16	-0.050			
0.3432	21963.34	3.7610	3.7610	-0.8215	24.92	0.15	-0.050			
0.3440	22015.99	3.7600	3.7599	-0.8262	24.90	0.13	-0.050			
0.3448	22069.00	3.7590	3.7591	-0.8312	24.89	0.12	-0.050			
0.3457	22122.43	3.7580	3.7580	-0.8360	24.88	0.11	-0.050			
0.3465	22175.93	3.7570	3.7569	-0.8408	24.87	0.10	-0.050			
0.3473	22229.96	3.7560	3.7560	-0.8457	24.88	0.11	-0.050			
0.3482	22284.09	3.7550	3.7550	-0.8512	24.89	0.12	-0.050			
0.3490	22338.46	3.7540	3.7540	-0.8569	24.90	0.13	-0.050			
0.3499	22393.29	3.7530	3.7531	-0.8636	24.88	0.11	-0.050			
0.3508	22448.42	3.7520	3.7520	-0.8697	24.86	0.09	-0.050			
0.3516	22504.20	3.7510	3.7510	-0.8763	24.84	0.07	-0.050			
0.3525	22560.23	3.7500	3.7500	-0.8831	24.80	0.03	-0.050			
0.3534	22616.66	3.7490	3.7490	-0.8900	24.78	0.01	-0.050			
0.3543	22673.68	3.7480	3.7480	-0.8977	24.75	-0.02	-0.050			
0.3552	22731.10	3.7470	3.7470	-0.9054	24.71	-0.06	-0.050			
0.3561	22789.08	3.7460	3.7460	-0.9130	24.69	-0.08	-0.050			
0.3570	22847.43	3.7450	3.7449	-0.9215	24.67	-0.10	-0.050			
0.3579	22906.05	3.7440	3.7440	-0.9304	24.65	-0.12	-0.050			
0.3588	22965.77	3.7430	3.7430	-0.9399	24.63	-0.14	-0.050			
0.3598	23026.02	3.7420	3.7420	-0.9497	24.63	-0.14	-0.050			
0.3607	23086.89	3.7410	3.7410	-0.9602	24.62	-0.15	-0.050	0.440	0.668	
0.3617	23148.53	3.7400	3.7400	-0.9708	24.61	-0.16	-0.050			
0.3627	23210.79	3.7390	3.7390	-0.9813	24.60	-0.17	-0.050			
0.3637	23274.06	3.7380	3.7380	-0.9919	24.59	-0.18	-0.050			
0.3647	23337.95	3.7370	3.7370	-1.0017	24.63	-0.14	-0.050			
0.3657	23402.48	3.7360	3.7359	-1.0124	24.66	-0.11	-0.050			
0.3667	23467.65	3.7350	3.7351	-1.0218	24.70	-0.07	-0.050			
0.3677	23533.45	3.7340	3.7340	-1.0317	24.70	-0.07	-0.050			
0.3688	23600.09	3.7330	3.7330	-1.0415	24.71	-0.06	-0.050			
0.3698	23667.29	3.7320	3.7320	-1.0515	24.70	-0.07	-0.050			
0.3709	23735.05	3.7310	3.7310	-1.0610	24.68	-0.09	-0.050			
0.3719	23803.41	3.7300	3.7300	-1.0712	24.67	-0.10	-0.050			
0.3730	23872.26	3.7290	3.7291	-1.0813	24.68	-0.09	-0.050			
0.3741	23942.02	3.7280	3.7280	-1.0905	24.70	-0.07	-0.050			
0.3752	24012.04	3.7270	3.7270	-1.0999	24.73	-0.04	-0.050			
0.3763	24082.51	3.7260	3.7260	-1.1097	24.75	-0.02	-0.050			
0.3774	24153.52	3.7250	3.7250	-1.1193	24.78	0.01	-0.050			
0.3785	24225.09	3.7240	3.7240	-1.1289	24.79	0.02	-0.050			
0.3796	24297.38	3.7230	3.7230	-1.1393	24.79	0.02	-0.050			
0.3808	24370.52	3.7220	3.7220	-1.1495	24.81	0.04	-0.050	0.345	0.682	
0.3819	24444.12	3.7210	3.7210	-1.1597	24.82	0.05	-0.050			
0.3831	24518.73	3.7200	3.7200	-1.1707	24.83	0.06	-0.050			
0.3843	24594.05	3.7190	3.7190	-1.1811	24.85	0.08	-0.050			
0.3855	24670.11	3.7180	3.7180	-1.1919	24.85	0.08	-0.050			
0.3867	24746.99	3.7170	3.7170	-1.2022	24.85	0.08	-0.050			
0.3879	24824.32	3.7160	3.7160	-1.2129	24.83	0.06	-0.050			
0.3891	24902.57	3.7150	3.7150	-1.2228	24.81	0.04	-0.050			
0.3903	24981.41	3.7140	3.7141	-1.2325	24.81	0.04	-0.050			
0.3916	25060.67	3.7130	3.7130	-1.2432	24.80	0.03	-0.050			
0.3928	25140.55	3.7120	3.7120	-1.2532	24.80	0.03	-0.050			
0.3941	25221.15	3.7110	3.7110	-1.2627	24.81	0.04	-0.050			
0.3953	25302.25	3.7100	3.7101	-1.2724	24.80	0.03	-0.050			
0.3966	25384.01	3.7090	3.7090	-1.2823	24.79	0.02	-0.050			
0.3979	25466.38	3.7080	3.7080	-1.2929	24.81	0.04	-0.050			
0.3992	25549.18	3.7070	3.7070	-1.3020	24.79	0.02	-0.050			
0.4005	25632.71	3.7060	3.7059	-1.3115	24.79	0.02	-0.050	0.622	0.651	
0.4018	25716.79	3.7050	3.7050	-1.3217	24.77	0.00	-0.050			
0.4031	25801.33	3.7040	3.7039	-1.3326	24.79	0.02	-0.050			
0.4045	25886.35	3.7030	3.7029	-1.3447	24.79	0.02	-0.050			
0.4058	25972.39	3.7020	3.7020	-1.3573	24.79	0.02	-0.050			
0.4072	26059.06	3.7010	3.7010	-1.3703	24.80	0.03	-0.050			
0.4085	26146.79	3.7000	3.7001	-1.3839	24.81	0.04	-0.050			
0.4099	26235.28	3.6990	3.6990	-1.3985	24.84	0.07	-0.050			
0.4113	26324.77	3.6980	3.6980	-1.4129	24.83	0.06	-0.050			
0.4127	26415.40	3.6970	3.6970	-1.4278	24.79	0.02	-0.050			
0.4142	26506.99	3.6960	3.6960	-1.4428	24.75	-0.02	-0.050			
0.4156	26600.24	3.6950	3.6949	-1.4571	24.75	-0.02	-0.050			
0.4171	26694.23	3.6940	3.6939	-1.4706	24.76	-0.01	-0.050			
0.4186	26789.32	3.6930	3.6930	-1.4838	24.79	0.02	-0.050			
0.4201	26885.43	3.6920	3.6920	-1.4969	24.83	0.06	-0.050	0.457	0.663	
0.4216	26982.31	3.6910	3.6910	-1.5096	24.87	0.10	-0.050			
0.4231	27079.92	3.6900	3.6900	-1.5215	24.87	0.10	-0.050			
0.4247	27177.92	3.6890	3.6890	-1.5345	24.87	0.10	-0.050			
0.4262	27277.10	3.6880	3.6881	-1.5464	24.86	0.09	-0.050			
0.4278	27376.73	3.6870	3.6870	-1.5583	24.85	0.08	-0.050			
0.4293	27476.48	3.6860	3.6861	-1.5703	24.80	0.03	-0.050			
0.4309	27576.83	3.6850	3.6851	-1.5821	24.76	-0.01	-0.050			
0.4325	27677.48	3.6840	3.6840	-1.5947	24.74	-0.03	-0.050			
0.4340	27778.89	3.6830	3.6830	-1.6084	24.72	-0.05	-0.050			
0.4356	27881.57	3.6820	3.6819	-1.6232	24.69	-0.08	-0.050			
0.4373	27984.76	3.6810	3.6810	-1.6388	24.71	-0.06	-0.050			
0.4389	28089.34	3.6800	3.6800	-1.6553	24.72	-0.05	-0.050			
0.4405	28195.08	3.6790	3.6790	-1.6713	24.73	-0.04	-0.050	0.472	0.615	
0.4422	28302.28	3.6780	3.6780	-1.6892	24.74	-0.03	-0.050			
0.4439	28410.60	3.6770	3.6769	-1.7076	24.80	0.03	-0.050			
0.4456	28520.96	3.6760	3.6760	-1.7255	24.84	0.07	-0.050			
0.4474	28632.50	3.6750	3.6751	-1.7442	24.85	0.08	-0.050			
0.4491	28744.97	3.6740	3.6740	-1.7629	24.85	0.08	-0.050			
0.4509	28858.86	3.6730	3.6730	-1.7810	24.85	0.08	-0.050			
0.4527	28973.89	3.6720	3.6719	-1.7984	24.86	0.09	-0.050			
0.4545	29089.48	3.6710	3.6710	-1.8168	24.87	0.10	-0.050			
0.4563	29206.13	3.6700	3.6700	-1.8361	24.90	0.13	-0.050			
0.4582	29323.02	3.6690	3.6690	-1.8579	24.92	0.15	-0.050			
0.4600	29441.68	3.6680	3.6680	-1.8801	24.90	0.13	-0.050	0.586	0.706	
0.4619	29561.24	3.6670	3.6670	-1.9032	24.86	0.09	-0.050			
0.4638	29682.46	3.6660	3.6659	-1.9258	24.81	0.04	-0.050			
0.4657	29805.40	3.6650	3.6650	-1.9514	24.75	-0.02	-0.050			
0.4677	29929.97	3.6640	3.6639	-1.9771	24.71	-0.06	-0.050			
0.4696	30056.62	3.6630	3.6629	-2.0027	24.71	-0.06	-0.050			
0.4717	30185.64	3.6620	3.6620	-2.0284	24.75	-0.02	-0.050			
0.4737	30316.30	3.6610	3.6610	-2.0544	24.75	-0.02	-0.050			
0.4758	30449.13	3.6600	3.6600	-2.0813	24.82	0.05	-0.050			
0.4779	30583.91	3.6590	3.6590	-2.1071	24.88	0.11	-0.050			
0.4800	30720.53	3.6580	3.6580	-2.1333	24.91	0.14	-0.050	0.561	0.731	
0.4822	30858.77	3.6570	3.6569	-2.1598	24.90	0.13	-0.050			
0.4844	30998.57	3.6560	3.6560	-2.1866	24.89	0.12	-0.050			
0.4866	31139.37	3.6550	3.6550	-2.2122	24.91	0.14	-0.050			
0.4888	31281.78	3.6540	3.6540	-2.2387	24.89	0.12	-0.050			
0.4910	31425.65	3.6530	3.6530	-2.2657	24.81	0.04	-0.050			
0.4933	31570.84	3.6520	3.6519	-2.2920	24.78	0.01	-0.050			
0.4956	31718.12	3.6510	3.6510	-2.3169	24.77	0.00	-0.050			
0.4979	31865.80	3.6500	3.6500	-2.3437	24.77	0.00	-0.050			
0.5002	32015.89	3.6490	3.6491	-2.3673	24.75	-0.02	-0.050	0.090	0.704	
0.5026	32168.47	3.6480	3.6480	-2.3910	24.73	-0.04	-0.050			
0.5050	32322.73	3.6470	3.6470	-2.4153	24.75	-0.02	-0.050			
0.5075	32478.49	3.6460	3.6460	-2.4378	24.76	-0.01	-0.050			
0.5099	32635.99	3.6450	3.6451	-2.4617	24.78	0.01	-0.050			
0.5124	32795.17	3.6440	3.6440	-2.4855	24.79	0.02	-0.050			
0.5149	32956.70	3.6430	3.6430	-2.5082	24.79	0.02	-0.050			
0.5175	33118.45	3.6420	3.6421	-2.5303	24.80	0.03	-0.050			
0.5200	33282.11	3.6410	3.6411	-2.5516	24.81	0.04	-0.050	0.551	0.687	
0.5226	33446.86	3.6400	3.6400	-2.5703	24.75	-0.02	-0.050			
0.5252	33612.36	3.6390	3.6389	-2.5863	24.71	-0.06	-0.050			
0.5278	33778.35	3.6380	3.6380	-2.6018	24.75	-0.02	-0.050			
0.5304	33945.23	3.6370	3.6370	-2.6157	24.77	0.00	-0.050			
0.5330	34112.79	3.6360	3.6361	-2.6299	24.81	0.04	-0.050			
0.5356	34281.56	3.6350	3.6350	-2.6446	24.81	0.04	-0.050			
0.5383	34451.84	3.6340	3.6340	-2.6565	24.81	0.04	-0.050			
0.5410	34623.14	3.6330	3.6330	-2.6680	24.83	0.06	-0.050	0.392	0.602	
0.5437	34795.81	3.6320	3.6320	-2.6785	24.89	0.12	-0.050			
0.5464	34970.29	3.6310	3.6310	-2.6848	24.88	0.11	-0.050			
0.5491	35144.18	3.6300	3.6300	-2.6830	24.87	0.10	-0.050			
0.5519	35318.59	3.6290	3.6290	-2.6777	24.89	0.12	-0.050			
0.5546	35493.30	3.6280	3.6280	-2.6647	24.89	0.12	-0.050			
0.5573	35666.35	3.6270	3.6271	-2.6489	24.91	0.14	-0.050			
0.5600	35837.58	3.6260	3.6260	-2.6290	24.92	0.15	-0.050	0.550	0.688	
0.5626	36007.23	3.6250	3.6249	-2.6070	24.89	0.12	-0.050			
0.5652	36174.27	3.6240	3.6241	-2.5852	24.91	0.14	-0.050			
0.5678	36338.77	3.6230	3.6231	-2.5610	24.91	0.14	-0.050			
0.5703	36501.86	3.6220	3.6221	-2.5339	24.85	0.08	-0.050			
0.5729	36662.42	3.6210	3.6210	-2.5053	24.76	-0.01	-0.050			
0.5753	36820.87	3.6200	3.6200	-2.4769	24.69	-0.08	-0.050			
0.5778	36977.73	3.6190	3.6190	-2.4475	24.63	-0.14	-0.050			
0.5802	37132.65	3.6180	3.6179	-2.4205	24.63	-0.14	-0.050	0.373	0.676	
0.5826	37286.23	3.6170	3.6169	-2.3943	24.63	-0.14	-0.050			
0.5850	37438.26	3.6160	3.6160	-2.3681	24.71	-0.06	-0.050			
0.5873	37589.16	3.6150	3.6151	-2.3424	24.81	0.04	-0.050			
0.5897	37738.59	3.6140	3.6141	-2.3166	24.84	0.07	-0.050			
0.5920	37886.96	3.6130	3.6129	-2.2902	24.86	0.09	-0.050			
0.5943	38033.96	3.6120	3.6120	-2.2645	24.90	0.13	-0.050			
0.5966	38179.21	3.6110	3.6111	-2.2385	24.94	0.17	-0.050			
0.5988	38322.39	3.6100	3.6100	-2.2105	24.95	0.18	-0.050			
0.6010	38463.42	3.6090	3.6091	-2.1838	24.95	0.18	-0.050	0.588	0.746	
0.6032	38602.33	3.6080	3.6080	-2.1572	24.94	0.17	-0.050			
0.6053	38738.69	3.6070	3.6070	-2.1301	24.95	0.18	-0.050			
0.6074	38873.16	3.6060	3.6061	-2.1019	24.95	0.18	-0.050			
0.6095	39005.31	3.6050	3.6049	-2.0755	24.96	0.19	-0.050			
0.6115	39136.33	3.6040	3.6039	-2.0516	25.01	0.24	-0.050			
0.6135	39266.59	3.6030	3.6030	-2.0287	24.98	0.21	-0.050			
0.6155	39394.83	3.6020	3.6020	-2.0042	24.96	0.19	-0.050			
0.6175	39521.12	3.6010	3.6010	-1.9824	24.97	0.20	-0.050			
0.6195	39646.31	3.6000	3.5999	-1.9628	24.97	0.20	-0.050			
0.6214	39769.84	3.5990	3.5990	-1.9451	24.97	0.20	-0.050	0.579	0.725	
0.6233	39892.88	3.5980	3.5980	-1.9293	25.00	0.23	-0.050			
0.6252	40014.96	3.5970	3.5971	-1.9146	24.99	0.22	-0.050			
0.6271	40136.60	3.5960	3.5960	-1.9017	25.03	0.26	-0.050			
0.6290	40257.58	3.5950	3.5950	-1.8892	25.03	0.26	-0.050			
0.6309	40377.98	3.5940	3.5940	-1.8771	25.00	0.23	-0.050			
0.6328	40497.47	3.5930	3.5929	-1.8644	24.89	0.12	-0.050			
0.6346	40616.40	3.5920	3.5919	-1.8508	24.82	0.05	-0.050			
0.6365	40734.46	3.5910	3.5910	-1.8374	24.83	0.06	-0.050			
0.6383	40851.61	3.5900	3.5900	-1.8238	24.83	0.06	-0.050			
0.6401	40967.91	3.5890	3.5890	-1.8091	24.81	0.04	-0.050	0.393	0.675	
0.6419	41083.94	3.5880	3.5880	-1.7968	24.82	0.05	-0.050			
0.6437	41199.07	3.5870	3.5869	-1.7834	24.85	0.08	-0.050			
0.6455	41312.79	3.5860	3.5861	-1.7710	24.83	0.06	-0.050			
0.6473	41426.06	3.5850	3.5851	-1.7586	24.82	0.05	-0.050			
0.6490	41538.71	3.5840	3.5841	-1.7459	24.81	0.04	-0.050			
0.6508	41649.97	3.5830	3.5830	-1.7328	24.82	0.05	-0.050			
0.6525	41759.91	3.5820	3.5820	-1.7204	24.85	0.08	-0.050			
0.6542	41868.37	3.5810	3.5811	-1.7076	24.86	0.09	-0.050			
0.6559	41976.27	3.5800	3.5800	-1.6955	24.90	0.13	-0.050			
0.6576	42083.33	3.5790	3.5789	-1.6864	24.93	0.16	-0.050			
0.6592	42190.19	3.5780	3.5780	-1.6775	24.93	0.16	-0.050			
0.6609	42296.21	3.5770	3.5770	-1.6696	24.93	0.16	-0.050	0.464	0.681	
0.6625	42401.87	3.5760	3.5760	-1.6635	24.92	0.15	-0.050			
0.6642	42507.16	3.5750	3.5751	-1.6585	24.91	0.14	-0.050			
0.6658	42612.55	3.5740	3.5739	-1.6542	24.93	0.16	-0.050			
0.6675	42718.29	3.5730	3.5730	-1.6505	24.97	0.20	-0.050			
0.6691	42823.61	3.5720	3.5720	-1.6476	24.99	0.22	-0.050			
0.6708	42928.77	3.5710	3.5710	-1.6442	24.99	0.22	-0.050			
0.6724	43034.32	3.5700	3.5700	-1.6408	24.97	0.20	-0.050			
0.6741	43139.66	3.5690	3.5691	-1.6369	24.97	0.20	-0.050			
0.6757	43244.84	3.5680	3.5679	-1.6318	24.97	0.20	-0.050			
0.6773	43349.40	3.5670	3.5670	-1.6276	24.96	0.19	-0.050			
0.6790	43453.90	3.5660	3.5660	-1.6227	24.95	0.18	-0.050			
0.6806	43558.04	3.5650	3.5650	-1.6185	24.89	0.12	-0.050	0.461	0.638	
0.6822	43662.50	3.5640	3.5640	-1.6123	24.85	0.08	-0.050			
0.6838	43765.83	3.5630	3.5630	-1.6036	24.82	0.05	-0.050			
0.6855	43869.07	3.5620	3.5621	-1.5946	24.81	0.04	-0.050			
0.6871	43971.75	3.5610	3.5610	-1.5846	24.83	0.06	-0.050			
0.6887	44074.05	3.5600	3.5600	-1.5708	24.83	0.06	-0.050			
0.6902	44175.54	3.5590	3.5590	-1.5558	24.83	0.06	-0.050			
0.6918	44275.82	3.5580	3.5580	-1.5400	24.81	0.04	-0.050			
0.6934	44375.23	3.5570	3.5570	-1.5217	24.80	0.03	-0.050			
0.6949	44473.29	3.5560	3.5560	-1.5022	24.85	0.08	-0.050			
0.6964	44570.12	3.5550	3.5551	-1.4815	24.90	0.13	-0.050			
0.6979	44665.46	3.5540	3.5541	-1.4586	24.95	0.18	-0.050			
0.6994	44759.34	3.5530	3.5531	-1.4353	24.98	0.21	-0.050			
0.7008	44851.17	3.5520	3.5520	-1.4109	24.99	0.22	-0.050	0.509	0.705	
0.7022	44941.31	3.5510	3.5510	-1.3854	25.00	0.23	-0.050			
0.7036	45029.73	3.5500	3.5501	-1.3598	25.00	0.23	-0.050			
0.7049	45115.73	3.5490	3.5490	-1.3335	24.98	0.21	-0.050			
0.7062	45199.51	3.5480	3.5480	-1.3065	24.97	0.20	-0.050			
0.7075	45281.61	3.5470	3.5470	-1.2794	24.95	0.18	-0.050			
0.7088	45361.68	3.5460	3.5459	-1.2548	24.95	0.18	-0.050			
0.7100	45440.23	3.5450	3.5449	-1.2303	24.94	0.17	-0.050			
0.7112	45517.45	3.5440	3.5440	-1.2073	24.90	0.13	-0.050			
0.7124	45593.03	3.5430	3.5430	-1.1857	24.89	0.12	-0.050			
0.7136	45667.22	3.5420	3.5421	-1.1660	24.87	0.10	-0.050			
0.7147	45740.48	3.5410	3.5410	-1.1466	24.88	0.11	-0.050			
0.7158	45812.16	3.5400	3.5400	-1.1293	24.89	0.12	-0.050			
0.7169	45882.99	3.5390	3.5389	-1.1134	24.91	0.14	-0.050			
0.7180	45952.88	3.5380	3.5380	-1.0971	24.95	0.18	-0.050			
0.7191	46021.88	3.5370	3.5370	-1.0836	24.97	0.20	-0.050			
0.7202	46090.03	3.5360	3.5360	-1.0704	24.97	0.20	-0.050	0.574	0.722	
0.7212	46157.29	3.5350	3.5349	-1.0593	24.97	0.20	-0.050			
0.7223	46224.22	3.5340	3.5341	-1.0483	24.99	0.22	-0.050			
0.7233	46290.12	3.5330	3.5330	-1.0386	24.99	0.22	-0.050			
0.7243	46355.76	3.5320	3.5320	-1.0305	25.01	0.24	-0.050			
0.7253	46420.87	3.5310	3.5310	-1.0222	25.01	0.24	-0.050			
0.7263	46485.61	3.5300	3.5299	-1.0144	25.02	0.25	-0.050			
0.7273	46549.79	3.5290	3.5290	-1.0073	25.03	0.26	-0.050			
0.7283	46614.01	3.5280	3.5279	-1.0002	25.04	0.27	-0.050			
0.7293	46677.78	3.5270	3.5270	-0.9936	25.07	0.30	-0.050			
0.7303	46741.07	3.5260	3.5260	-0.9871	25.06	0.29	-0.050			
0.7313	46804.27	3.5250	3.5249	-0.9810	25.04	0.27	-0.050			
0.7323	46866.81	3.5240	3.5241	-0.9740	25.03	0.26	-0.050			
0.7333	46929.36	3.5230	3.5230	-0.9670	25.04	0.27	-0.050			
0.7342	46991.09	3.5220	3.5220	-0.9604	25.07	0.30	-0.050			
0.7352	47052.67	3.5210	3.5210	-0.9526	25.05	0.28	-0.050			
0.7362	47113.60	3.5200	3.5201	-0.9457	25.05	0.28	-0.050			
0.7371	47174.05	3.5190	3.5190	-0.9389	25.05	0.28	-0.050			
0.7380	47233.82	3.5180	3.5179	-0.9316	25.04	0.27	-0.050			
0.7390	47293.03	3.5170	3.5170	-0.9247	25.04	0.27	-0.050			
0.7399	47351.58	3.5160	3.5161	-0.9188	25.03	0.26	-0.050			
0.7408	47409.67	3.5150	3.5150	-0.9123	25.00	0.23	-0.050	0.552	0.768	
0.7417	47467.18	3.5140	3.5141	-0.9082	24.95	0.18	-0.050			
0.7426	47524.38	3.5130	3.5129	-0.9031	24.91	0.14	-0.050			
0.7435	47581.03	3.5120	3.5121	-0.8994	24.89	0.12	-0.050			
0.7443	47637.90	3.5110	3.5110	-0.8972	24.87	0.10	-0.050			
0.7452	47693.63	3.5100	3.5100	-0.8977	24.89	0.12	-0.050			
0.7461	47750.16	3.5090	3.5090	-0.8990	24.91	0.14	-0.050			
0.7470	47805.51	3.5080	3.5080	-0.9041	24.93	0.16	-0.050			
0.7478	47861.31	3.5070	3.5071	-0.9131	24.95	0.18	-0.050			
0.7487	47916.56	3.5060	3.5060	-0.9239	24.95	0.18	-0.050			
0.7496	47973.01	3.5050	3.5050	-0.9410	24.97	0.20	-0.050			
0.7505	48030.73	3.5040	3.5041	-0.9641	24.97	0.20	-0.050			
0.7514	48086.84	3.5030	3.5031	-0.9919	24.96	0.19	-0.050			
0.7523	48147.32	3.5020	3.5021	-1.0255	24.94	0.17	-0.050			
0.7532	48206.97	3.5010	3.5010	-1.0639	24.92	0.15	-0.050			
0.7542	48271.01	3.5000	3.5001	-1.1135	24.91	0.14	-0.050			
0.7553	48336.99	3.4990	3.4990	-1.1628	24.91	0.14	-0.050			
0.7564	48407.81	3.4980	3.4980	-1.2275	24.92	0.15	-0.050			
0.7576	48483.99	3.4970	3.4970	-1.2976	24.91	0.14	-0.050			
0.7588	48563.27	3.4960	3.4960	-1.3683	24.91	0.14	-0.050			
0.7602	48650.89	3.4950	3.4950	-1.4492	24.89	0.12	-0.050	0.474	0.723	
0.7616	48743.47	3.4940	3.4940	-1.5289	24.89	0.12	-0.050			
0.7632	48843.95	3.4930	3.4929	-1.6158	24.90	0.13	-0.050			
0.7649	48950.70	3.4920	3.4919	-1.7007	24.91	0.14	-0.050			
0.7666	49064.54	3.4910	3.4910	-1.7862	24.91	0.14	-0.050			
0.7685	49184.61	3.4900	3.4900	-1.8692	24.89	0.12	-0.050			
0.7705	49311.67	3.4890	3.4890	-1.9436	24.89	0.12	-0.050			
0.7726	49444.05	3.4880	3.4878	-2.0148	24.85	0.08	-0.050			
0.7747	49582.07	3.4870	3.4870	-2.0770	24.82	0.05	-0.050			
0.7769	49723.89	3.4860	3.4859	-2.1296	24.81	0.04	-0.050			
0.7792	49867.68	3.4850	3.4850	-2.1756	24.83	0.06	-0.050			
0.7815	50014.34	3.4840	3.4840	-2.2083	24.83	0.06	-0.050	0.583	0.660	
0.7838	50163.45	3.4830	3.4830	-2.2400	24.81	0.04	-0.050			
0.7861	50312.69	3.4820	3.4821	-2.2549	24.79	0.02	-0.050			
0.7885	50463.44	3.4810	3.4811	-2.2645	24.79	0.02	-0.050			
0.7908	50614.36	3.4800	3.4801	-2.2630	24.76	-0.01	-0.050			
0.7932	50764.17	3.4790	3.4790	-2.2501	24.75	-0.02	-0.050			
0.7955	50913.08	3.4780	3.4780	-2.2309	24.73	-0.04	-0.050			
0.7978	51058.25	3.4770	3.4770	-2.2030	24.71	-0.06	-0.050			
0.8000	51203.08	3.4760	3.4759	-2.1677	24.67	-0.10	-0.050	0.562	0.739	
0.8022	51343.68	3.4750	3.4750	-2.1275	24.65	-0.12	-0.050			
0.8044	51482.26	3.4740	3.4740	-2.0805	24.67	-0.10	-0.050			
0.8065	51616.96	3.4730	3.4730	-2.0298	24.76	-0.01	-0.050			
0.8086	51748.34	3.4720	3.4722	-1.9760	24.81	0.04	-0.050			
0.8106	51876.07	3.4710	3.4710	-1.9194	24.84	0.07	-0.050			
0.8125	51999.30	3.4700	3.4700	-1.8577	24.86	0.09	-0.050			
0.8144	52118.72	3.4690	3.4690	-1.7949	24.87	0.10	-0.050			
0.8161	52232.59	3.4680	3.4680	-1.7283	24.89	0.12	-0.050			
0.8178	52341.78	3.4670	3.4670	-1.6605	24.91	0.14	-0.050			
0.8195	52445.28	3.4660	3.4660	-1.5925	24.95	0.18	-0.050			
0.8210	52543.95	3.4650	3.4650	-1.5252	24.95	0.18	-0.050	0.434	0.690	
0.8225	52637.81	3.4640	3.4640	-1.4567	24.97	0.20	-0.050			
0.8239	52727.75	3.4630	3.4630	-1.3914	24.97	0.20	-0.050			
0.8252	52812.77	3.4620	3.4620	-1.3297	24.95	0.18	-0.050			
0.8265	52895.02	3.4610	3.4610	-1.2699	24.93	0.16	-0.050			
0.8277	52973.16	3.4600	3.4600	-1.2113	24.93	0.16	-0.050			
0.8289	53047.18	3.4590	3.4590	-1.1541	24.94	0.17	-0.050			
0.8300	53117.61	3.4580	3.4579	-1.0995	24.95	0.18	-0.050			
0.8310	53184.93	3.4570	3.4571	-1.0481	24.95	0.18	-0.050			
0.8320	53248.52	3.4560	3.4560	-0.9982	24.95	0.18	-0.050			
0.8330	53308.95	3.4550	3.4551	-0.9521	24.95	0.18	-0.050			
0.8339	53366.66	3.4540	3.4539	-0.9074	24.96	0.19	-0.050			
0.8347	53421.91	3.4530	3.4530	-0.8658	24.95	0.18	-0.050			
0.8355	53474.14	3.4520	3.4520	-0.8259	24.96	0.19	-0.050			
0.8363	53523.85	3.4510	3.4509	-0.7884	24.96	0.19	-0.050			
0.8371	53572.15	3.4500	3.4499	-0.7503	24.97	0.20	-0.050			
0.8378	53617.25	3.4490	3.4490	-0.7174	24.97	0.20	-0.050			
0.8384	53660.16	3.4480	3.4480	-0.6862	24.99	0.22	-0.050			
0.8391	53701.60	3.4470	3.4470	-0.6578	24.99	0.22	-0.050			
0.8397	53741.56	3.4460	3.4460	-0.6276	24.99	0.22	-0.050			
0.8403	53779.19	3.4450	3.4450	-0.6022	24.99	0.22	-0.050			
0.8409	53815.65	3.4440	3.4440	-0.5794	25.01	0.24	-0.050	0.646	0.749	
0.8414	53851.34	3.4430	3.4429	-0.5553	25.01	0.24	-0.050			
0.8419	53884.38	3.4420	3.4420	-0.5340	25.01	0.24	-0.050			
0.8424	53916.64	3.4410	3.4410	-0.5152	25.01	0.24	-0.050			
0.8429	53948.53	3.4400	3.4400	-0.4957	25.01	0.24	-0.050			
0.8434	53978.54	3.4390	3.4390	-0.4795	25.00	0.23	-0.050			
0.8439	54008.16	3.4380	3.4379	-0.4620	25.00	0.23	-0.050			
0.8443	54036.09	3.4370	3.4370	-0.4476	24.99	0.22	-0.050			
0.8447	54063.69	3.4360	3.4360	-0.4321	24.99	0.22	-0.050			
0.8452	54089.83	3.4350	3.4350	-0.4196	24.98	0.21	-0.050			
0.8456	54115.61	3.4340	3.4340	-0.4059	24.98	0.21	-0.050			
0.8459	54140.45	3.4330	3.4330	-0.3951	24.98	0.21	-0.050			
0.8463	54164.92	3.4320	3.4320	-0.3832	24.98	0.21	-0.050			
0.8467	54188.21	3.4310	3.4311	-0.3736	24.97	0.20	-0.050			
0.8471	54211.82	3.4300	3.4300	-0.3642	24.97	0.20	-0.050			
0.8474	54233.91	3.4290	3.4290	-0.3560	24.97	0.20	-0.050			
0.8477	54255.91	3.4280	3.4280	-0.3467	24.97	0.20	-0.050			
0.8481	54277.04	3.4270	3.4270	-0.3393	24.97	0.20	-0.050			
0.8484	54298.53	3.4260	3.4260	-0.3323	24.97	0.20	-0.050			
0.8487	54318.82	3.4250	3.4250	-0.3258	24.97	0.20	-0.050			
0.8490	54339.04	3.4240	3.4240	-0.3185	24.97	0.20	-0.050			
0.8494	54359.24	3.4230	3.4230	-0.3127	24.97	0.20	-0.050			
0.8497	54378.42	3.4220	3.4220	-0.3076	24.98	0.21	-0.050			
0.8500	54397.64	3.4210	3.4210	-0.3019	24.98	0.21	-0.050			
0.8503	54416.57	3.4200	3.4200	-0.2980	24.99	0.22	-0.050			
0.8505	54435.17	3.4190	3.4190	-0.2928	24.97	0.20	-0.050			
0.8508	54453.78	3.4180	3.4180	-0.2888	24.95	0.18	-0.050			
0.8511	54471.69	3.4170	3.4170	-0.2851	24.93	0.16	-0.050			
0.8514	54489.82	3.4160	3.4160	-0.2815	24.91	0.14	-0.050			
0.8517	54507.36	3.4150	3.4150	-0.2782	24.90	0.13	-0.050			
0.8520	54525.07	3.4140	3.4139	-0.2751	24.89	0.12	-0.050			
0.8522	54542.36	3.4130	3.4130	-0.2716	24.88	0.11	-0.050			
0.8525	54559.49	3.4120	3.4120	-0.2693	24.87	0.10	-0.050			
0.8528	54576.50	3.4110	3.4110	-0.2664	24.86	0.09	-0.050			
0.8530	54593.27	3.4100	3.4101	-0.2644	24.85	0.08	-0.050			
0.8533	54609.86	3.4090	3.4090	-0.2615	24.84	0.07	-0.050			
0.8535	54626.52	3.4080	3.4080	-0.2593	24.83	0.06	-0.050			
0.8538	54642.77	3.4070	3.4069	-0.2572	24.82	0.05	-0.050			
0.8540	54659.17	3.4060	3.4060	-0.2554	24.82	0.05	-0.050			
0.8543	54675.23	3.4050	3.4050	-0.2536	24.81	0.04	-0.050			
0.8546	54691.41	3.4040	3.4040	-0.2520	24.81	0.04	-0.050			
0.8548	54707.49	3.4030	3.4030	-0.2504	24.82	0.05	-0.050			
0.8551	54723.34	3.4020	3.4020	-0.2489	24.82	0.05	-0.050			
0.8553	54739.22	3.4010	3.4010	-0.2474	24.82	0.05	-0.050			
0.8555	54754.84	3.4000	3.4000	-0.2458	24.83	0.06	-0.050			
0.8558	54770.53	3.3990	3.3990	-0.2445	24.84	0.07	-0.050			
0.8560	54786.14	3.3980	3.3981	-0.2433	24.85	0.08	-0.050			
0.8563	54801.66	3.3970	3.3970	-0.2419	24.86	0.09	-0.050			
0.8565	54817.11	3.3960	3.3960	-0.2406	24.87	0.10	-0.050			
0.8568	54832.43	3.3950	3.3950	-0.2393	24.88	0.11	-0.050			
0.8570	54847.74	3.3940	3.3940	-0.2380	24.89	0.12	-0.050			
0.8572	54862.93	3.3930	3.3930	-0.2367	24.90	0.13	-0.050			
0.8575	54878.07	3.3920	3.3920	-0.2355	24.90	0.13	-0.050			
0.8577	54893.13	3.3910	3.3910	-0.2340	24.91	0.14	-0.050			
0.8579	54908.09	3.3900	3.3900	-0.2327	24.91	0.14	-0.050			
0.8582	54922.94	3.3890	3.3889	-0.2314	24.92	0.15	-0.050			
0.8584	54937.70	3.3880	3.3880	-0.2300	24.92	0.15	-0.050			
0.8586	54952.33	3.3870	3.3870	-0.2290	24.92	0.15	-0.050			
0.8589	54966.91	3.3860	3.3860	-0.2279	24.92	0.15	-0.050			
0.8591	54981.45	3.3850	3.3850	-0.2266	24.93	0.16	-0.050			
0.8593	54995.91	3.3840	3.3840	-0.2254	24.93	0.16	-0.050			
0.8595	55010.25	3.3830	3.3830	-0.2243	24.93	0.16	-0.050			
0.8598	55024.48	3.3820	3.3821	-0.2230	24.93	0.16	-0.050			
0.8600	55038.72	3.3810	3.3809	-0.2219	24.94	0.17	-0.050			
0.8602	55052.81	3.3800	3.3800	-0.2208	24.94	0.17	-0.050			
0.8604	55066.91	3.3790	3.3791	-0.2197	24.94	0.17	-0.050			
0.8606	55080.94	3.3780	3.3779	-0.2187	24.95	0.18	-0.050	0.593	0.825	
0.8609	55094.81	3.3770	3.3771	-0.2176	24.95	0.18	-0.050			
0.8611	55108.70	3.3760	3.3760	-0.2167	24.95	0.18	-0.050			
0.8613	55122.54	3.3750	3.3750	-0.2157	24.95	0.18	-0.050			
0.8615	55136.28	3.3740	3.3740	-0.2148	24.94	0.17	-0.050			
0.8617	55150.00	3.3730	3.3730	-0.2139	24.94	0.17	-0.050			
0.8619	55163.66	3.3720	3.3720	-0.2130	24.94	0.17	-0.050			
0.8621	55177.25	3.3710	3.3710	-0.2121	24.94	0.17	-0.050			
0.8624	55190.80	3.3700	3.3700	-0.2113	24.95	0.18	-0.050			
0.8626	55204.29	3.3690	3.3690	-0.2104	24.95	0.18	-0.050			
0.8628	55217.78	3.3680	3.3680	-0.2093	24.95	0.18	-0.050			
0.8630	55231.19	3.3670	3.3670	-0.2084	24.95	0.18	-0.050			
0.8632	55244.43	3.3660	3.3660	-0.2072	24.96	0.19	-0.050			
0.8634	55257.67	3.3650	3.3650	-0.2063	24.96	0.19	-0.050			
0.8636	55270.83	3.3640	3.3640	-0.2055	24.96	0.19	-0.050			
0.8638	55284.00	3.3630	3.3630	-0.2047	24.96	0.19	-0.050			
0.8640	55297.08	3.3620	3.3620	-0.2038	24.97	0.20	-0.050			
0.8642	55310.05	3.3610	3.3610	-0.2030	24.97	0.20	-0.050			
0.8644	55323.01	3.3600	3.3600	-0.2021	24.97	0.20	-0.050			
0.8646	55335.92	3.3590	3.3591	-0.2012	24.97	0.20	-0.050			
0.8648	55348.73	3.3580	3.3581	-0.2005	24.97	0.20	-0.050			
0.8650	55361.50	3.3570	3.3569	-0.1996	24.97	0.20	-0.050			
0.8652	55374.25	3.3560	3.3560	-0.1988	24.97	0.20	-0.050			
0.8654	55386.94	3.3550	3.3550	-0.1980	24.97	0.20	-0.050			
0.8656	55399.53	3.3540	3.3539	-0.1970	24.97	0.20	-0.050			
0.8658	55412.11	3.3530	3.3530	-0.1962	24.97	0.20	-0.050			
0.8660	55424.64	3.3520	3.3520	-0.1955	24.97	0.20	-0.050			
0.8662	55437.07	3.3510	3.3510	-0.1946	24.97	0.20	-0.050			
0.8664	55449.51	3.3500	3.3500	-0.1939	24.97	0.20	-0.050			
0.8666	55461.89	3.3490	3.3490	-0.1932	24.97	0.20	-0.050			
0.8668	55474.26	3.3480	3.3480	-0.1924	24.97	0.20	-0.050			
0.8670	55486.55	3.3470	3.3470	-0.1916	24.97	0.20	-0.050			
0.8672	55498.79	3.3460	3.3460	-0.1909	24.97	0.20	-0.050			
0.8674	55510.96	3.3450	3.3450	-0.1902	24.97	0.20	-0.050			
0.8675	55523.18	3.3440	3.3440	-0.1897	24.97	0.20	-0.050			
0.8677	55535.29	3.3430	3.3430	-0.1889	24.97	0.20	-0.050			
0.8679	55547.36	3.3420	3.3420	-0.1881	24.96	0.19	-0.050			
0.8681	55559.32	3.3410	3.3409	-0.1873	24.96	0.19	-0.050			
0.8683	55571.28	3.3400	3.3400	-0.1866	24.96	0.19	-0.050			
0.8685	55583.20	3.3390	3.3390	-0.1858	24.95	0.18	-0.050			
0.8687	55595.01	3.3380	3.3380	-0.1852	24.95	0.18	-0.050			
0.8689	55606.84	3.3370	3.3370	-0.1845	24.95	0.18	-0.050			
0.8690	55618.63	3.3360	3.3360	-0.1838	24.95	0.18	-0.050			
0.8692	55630.34	3.3350	3.3350	-0.1831	24.95	0.18	-0.050			
0.8694	55642.05	3.3340	3.3340	-0.1824	24.95	0.18	-0.050			
0.8696	55653.71	3.3330	3.3330	-0.1818	24.95	0.18	-0.050			
0.8698	55665.33	3.3320	3.3320	-0.1811	24.95	0.18	-0.050			
0.8700	55676.90	3.3310	3.3310	-0.1804	24.95	0.18	-0.050			
0.8701	55688.43	3.3300	3.3300	-0.1798	24.95	0.18	-0.050			
0.8703	55699.91	3.3290	3.3290	-0.1791	24.95	0.18	-0.050			
0.8705	55711.35	3.3280	3.3280	-0.1784	24.95	0.18	-0.050			
0.8707	55722.74	3.3270	3.3269	-0.1778	24.95	0.18	-0.050			
0.8708	55734.10	3.3260	3.3260	-0.1771	24.95	0.18	-0.050			
0.8710	55745.44	3.3250	3.3250	-0.1765	24.95	0.18	-0.050			
0.8712	55756.72	3.3240	3.3240	-0.1758	24.95	0.18	-0.050			
0.8714	55767.93	3.3230	3.3230	-0.1752	24.96	0.19	-0.050			
0.8715	55779.12	3.3220	3.3220	-0.1745	24.96	0.19	-0.050			
0.8717	55790.23	3.3210	3.3210	-0.1738	24.97	0.20	-0.050			
0.8719	55801.38	3.3200	3.3200	-0.1730	24.97	0.20	-0.050			
0.8721	55812.43	3.3190	3.3190	-0.1723	24.97	0.20	-0.050			
0.8722	55823.48	3.3180	3.3180	-0.1717	24.97	0.20	-0.050			
0.8724	55834.44	3.3170	3.3170	-0.1710	24.96	0.19	-0.050			
0.8726	55845.31	3.3160	3.3160	-0.1704	24.96	0.19	-0.050			
0.8728	55856.19	3.3150	3.3150	-0.1697	24.96	0.19	-0.050			
0.8729	55866.99	3.3140	3.3141	-0.1690	24.96	0.19	-0.050			
0.8731	55877.79	3.3130	3.3130	-0.1683	24.96	0.19	-0.050			
0.8733	55888.45	3.3120	3.3120	-0.1680	24.95	0.18	-0.050			
0.8734	55899.15	3.3110	3.3111	-0.1674	24.95	0.18	-0.050			
0.8736	55909.85	3.3100	3.3101	-0.1668	24.95	0.18	-0.050			
0.8738	55920.51	3.3090	3.3089	-0.1663	24.95	0.18	-0.050			
0.8739	55931.20	3.3080	3.3080	-0.1655	24.95	0.18	-0.050			
0.8741	55941.75	3.3070	3.3070	-0.1649	24.95	0.18	-0.050			
0.8743	55952.29	3.3060	3.3060	-0.1643	24.95	0.18	-0.050			
0.8744	55962.79	3.3050	3.3049	-0.1638	24.95	0.18	-0.050			
0.8746	55973.27	3.3040	3.3040	-0.1631	24.95	0.18	-0.050			
0.8747	55983.69	3.3030	3.3030	-0.1625	24.95	0.18	-0.050			
0.8749	55994.07	3.3020	3.3020	-0.1619	24.95	0.18	-0.050			
0.8751	56004.41	3.3010	3.3010	-0.1613	24.95	0.18	-0.050			
0.8752	56014.73	3.3000	3.3000	-0.1608	24.95	0.18	-0.050			
0.8754	56025.00	3.2990	3.2991	-0.1602	24.95	0.18	-0.050			
0.8756	56035.23	3.2980	3.2981	-0.1596	24.94	0.17	-0.050			
0.8757	56045.43	3.2970	3.2970	-0.1590	24.94	0.17	-0.050			
0.8759	56055.60	3.2960	3.2960	-0.1587	24.93	0.16	-0.050			
0.8760	56065.74	3.2950	3.2950	-0.1581	24.93	0.16	-0.050			
0.8762	56075.84	3.2940	3.2940	-0.1575	24.93	0.16	-0.050			
0.8763	56085.90	3.2930	3.2930	-0.1569	24.93	0.16	-0.050			
0.8765	56095.80	3.2920	3.2920	-0.1563	24.93	0.16	-0.050			
0.8767	56105.78	3.2910	3.2910	-0.1558	24.93	0.16	-0.050			
0.8768	56115.74	3.2900	3.2900	-0.1553	24.93	0.16	-0.050			
0.8770	56125.66	3.2890	3.2890	-0.1548	24.93	0.16	-0.050			
0.8771	56135.49	3.2880	3.2880	-0.1540	24.93	0.16	-0.050			
0.8773	56145.33	3.2870	3.2871	-0.1536	24.93	0.16	-0.050			
0.8774	56155.14	3.2860	3.2860	-0.1531	24.93	0.16	-0.050			
0.8776	56164.93	3.2850	3.2850	-0.1527	24.93	0.16	-0.050			
0.8777	56174.78	3.2840	3.2840	-0.1523	24.93	0.16	-0.050			
0.8779	56184.52	3.2830	3.2831	-0.1518	24.93	0.16	-0.050			
0.8780	56194.22	3.2820	3.2820	-0.1513	24.93	0.16	-0.050			
0.8782	56203.88	3.2810	3.2810	-0.1508	24.94	0.17	-0.050			
0.8783	56213.51	3.2800	3.2801	-0.1503	24.94	0.17	-0.050			
0.8785	56223.11	3.2790	3.2791	-0.1498	24.94	0.17	-0.050			
0.8786	56232.68	3.2780	3.2780	-0.1493	24.94	0.17	-0.050			
0.8788	56242.22	3.2770	3.2769	-0.1487	24.94	0.17	-0.050			
0.8789	56251.72	3.2760	3.2759	-0.1482	24.94	0.17	-0.050			
0.8791	56261.19	3.2750	3.2750	-0.1477	24.93	0.16	-0.050			
0.8792	56270.63	3.2740	3.2740	-0.1472	24.93	0.16	-0.050			
0.8794	56280.03	3.2730	3.2730	-0.1466	24.93	0.16	-0.050			
0.8795	56289.36	3.2720	3.2720	-0.1461	24.93	0.16	-0.050			
0.8797	56298.70	3.2710	3.2710	-0.1456	24.93	0.16	-0.050			
0.8798	56308.00	3.2700	3.2701	-0.1451	24.93	0.16	-0.050			
0.8800	56317.26	3.2690	3.2690	-0.1446	24.93	0.16	-0.050			
0.8801	56326.40	3.2680	3.2680	-0.1442	24.93	0.16	-0.050			
0.8802	56335.61	3.2670	3.2670	-0.1437	24.93	0.16	-0.050			
0.8804	56344.79	3.2660	3.2661	-0.1433	24.93	0.16	-0.050			
0.8805	56353.95	3.2650	3.2650	-0.1429	24.94	0.17	-0.050			
0.8807	56363.07	3.2640	3.2639	-0.1424	24.94	0.17	-0.050	0.540	0.770	
0.8808	56372.23	3.2630	3.2630	-0.1419	24.94	0.17	-0.050			
0.8810	56381.30	3.2620	3.2620	-0.1414	24.95	0.18	-0.050			
0.8811	56390.33	3.2610	3.2610	-0.1409	24.95	0.18	-0.050			
0.8812	56399.32	3.2600	3.2600	-0.1404	24.95	0.18	-0.050			
0.8814	56408.31	3.2590	3.2590	-0.1400	24.95	0.18	-0.050			
0.8815	56417.25	3.2580	3.2580	-0.1395	24.95	0.18	-0.050			
0.8817	56426.16	3.2570	3.2570	-0.1390	24.95	0.18	-0.050			
0.8818	56435.04	3.2560	3.2560	-0.1385	24.95	0.18	-0.050			
0.8819	56443.90	3.2550	3.2550	-0.1381	24.95	0.18	-0.050			
0.8821	56452.70	3.2540	3.2540	-0.1377	24.95	0.18	-0.050			
0.8822	56461.52	3.2530	3.2531	-0.1373	24.95	0.18	-0.050			
0.8823	56470.30	3.2520	3.2521	-0.1369	24.95	0.18	-0.050			
0.8825	56479.05	3.2510	3.2509	-0.1364	24.95	0.18	-0.050			
0.8826	56487.76	3.2500	3.2500	-0.1359	24.95	0.18	-0.050			
0.8828	56496.44	3.2490	3.2490	-0.1355	24.95	0.18	-0.050			
0.8829	56505.08	3.2480	3.2480	-0.1350	24.95	0.18	-0.050			
0.8830	56513.70	3.2470	3.2470	-0.1345	24.95	0.18	-0.050			
0.8832	56522.30	3.2460	3.2459	-0.1341	24.95	0.18	-0.050			
0.8833	56530.86	3.2450	3.2450	-0.1336	24.95	0.18	-0.050			
0.8834	56539.40	3.2440	3.2440	-0.1332	24.95	0.18	-0.050			
0.8836	56547.84	3.2430	3.2430	-0.1326	24.95	0.18	-0.050			
0.8837	56556.31	3.2420	3.2420	-0.1322	24.95	0.18	-0.050			
0.8838	56564.76	3.2410	3.2410	-0.1318	24.95	0.18	-0.050			
0.8840	56573.19	3.2400	3.2400	-0.1314	24.95	0.18	-0.050			
0.8841	56581.63	3.2390	3.2391	-0.1311	24.96	0.19	-0.050			
0.8842	56590.00	3.2380	3.2381	-0.1306	24.96	0.19	-0.050			
0.8843	56598.35	3.2370	3.2370	-0.1302	24.96	0.19	-0.050			
0.8845	56606.67	3.2360	3.2360	-0.1297	24.96	0.19	-0.050			
0.8846	56614.96	3.2350	3.2350	-0.1293	24.96	0.19	-0.050			
0.8847	56623.22	3.2340	3.2340	-0.1288	24.96	0.19	-0.050			
0.8849	56631.45	3.2330	3.2330	-0.1284	24.97	0.20	-0.050			
0.8850	56639.65	3.2320	3.2319	-0.1279	24.97	0.20	-0.050			
0.8851	56647.82	3.2310	3.2309	-0.1275	24.97	0.20	-0.050			
0.8852	56655.91	3.2300	3.2300	-0.1273	24.97	0.20	-0.050			
0.8854	56663.98	3.2290	3.2291	-0.1268	24.97	0.20	-0.050			
0.8855	56672.08	3.2280	3.2280	-0.1264	24.97	0.20	-0.050			
0.8856	56680.16	3.2270	3.2269	-0.1260	24.97	0.20	-0.050			
0.8858	56688.21	3.2260	3.2260	-0.1257	24.98	0.21	-0.050			
0.8859	56696.29	3.2250	3.2250	-0.1252	24.98	0.21	-0.050			
0.8860	56704.29	3.2240	3.2241	-0.1248	24.98	0.21	-0.050			
0.8861	56712.27	3.2230	3.2230	-0.1244	24.98	0.21	-0.050			
0.8863	56720.22	3.2220	3.2219	-0.1241	24.98	0.21	-0.050			
0.8864	56728.15	3.2210	3.2210	-0.1237	24.98	0.21	-0.050			
0.8865	56736.06	3.2200	3.2200	-0.1233	24.99	0.22	-0.050			
0.8866	56743.98	3.2190	3.2190	-0.1228	24.99	0.22	-0.050			
0.8867	56751.82	3.2180	3.2180	-0.1224	24.99	0.22	-0.050			
0.8869	56759.64	3.2170	3.2170	-0.1220	24.99	0.22	-0.050			
0.8870	56767.43	3.2160	3.2160	-0.1215	24.99	0.22	-0.050			
0.8871	56775.23	3.2150	3.2150	-0.1211	24.99	0.22	-0.050			
0.8872	56782.96	3.2140	3.2141	-0.1207	24.99	0.22	-0.050			
0.8874	56790.67	3.2130	3.2130	-0.1203	24.98	0.21	-0.050			
0.8875	56798.35	3.2120	3.2120	-0.1198	24.98	0.21	-0.050			
0.8876	56806.01	3.2110	3.2110	-0.1194	24.98	0.21	-0.050			
0.8877	56813.69	3.2100	3.2100	-0.1190	24.98	0.21	-0.050			
0.8878	56821.18	3.2090	3.2090	-0.1187	24.98	0.21	-0.050			
0.8879	56828.77	3.2080	3.2081	-0.1183	24.98	0.21	-0.050			
0.8881	56836.33	3.2070	3.2070	-0.1179	24.98	0.21	-0.050			
0.8882	56843.87	3.2060	3.2059	-0.1175	24.99	0.22	-0.050			
0.8883	56851.24	3.2050	3.2050	-0.1169	24.99	0.22	-0.050			
0.8884	56858.71	3.2040	3.2041	-0.1166	24.99	0.22	-0.050			
0.8885	56866.19	3.2030	3.2031	-0.1163	24.99	0.22	-0.050			
0.8887	56873.62	3.2020	3.2020	-0.1159	24.99	0.22	-0.050			
0.8888	56881.03	3.2010	3.2009	-0.1156	24.99	0.22	-0.050			
0.8889	56888.42	3.2000	3.2000	-0.1153	24.99	0.22	-0.050			
0.8890	56895.78	3.1990	3.1990	-0.1150	24.99	0.22	-0.050			
0.8891	56903.17	3.1980	3.1980	-0.1146	24.99	0.22	-0.050			
0.8892	56910.49	3.1970	3.1970	-0.1142	24.99	0.22	-0.050			
0.8893	56917.79	3.1960	3.1960	-0.1139	24.99	0.22	-0.050			
0.8895	56925.06	3.1950	3.1950	-0.1135	24.99	0.22	-0.050			
0.8896	56932.34	3.1940	3.1940	-0.1132	24.99	0.22	-0.050			
0.8897	56939.58	3.1930	3.1930	-0.1128	24.99	0.22	-0.050			
0.8898	56946.84	3.1920	3.1921	-0.1123	24.99	0.22	-0.050			
0.8899	56954.02	3.1910	3.1911	-0.1119	24.99	0.22	-0.050			
0.8900	56961.17	3.1900	3.1901	-0.1115	24.99	0.22	-0.050			
0.8901	56968.37	3.1890	3.1890	-0.1112	24.99	0.22	-0.050			
0.8902	56975.47	3.1880	3.1880	-0.1107	24.99	0.22	-0.050			
0.8904	56982.54	3.1870	3.1870	-0.1103	24.99	0.22	-0.050			
0.8905	56989.48	3.1860	3.1859	-0.1101	25.00	0.23	-0.050			
0.8906	56996.52	3.1850	3.1850	-0.1097	25.00	0.23	-0.050			
0.8907	57003.53	3.1840	3.1840	-0.1093	25.00	0.23	-0.050			
0.8908	57010.45	3.1830	3.1830	-0.1089	25.00	0.23	-0.050			
0.8909	57017.41	3.1820	3.1820	-0.1085	25.01	0.24	-0.050			
0.8910	57024.33	3.1810	3.1810	-0.1082	25.01	0.24	-0.050			
0.8911	57031.24	3.1800	3.1800	-0.1079	25.01	0.24	-0.050			
0.8912	57038.14	3.1790	3.1790	-0.1075	25.01	0.24	-0.050			
0.8913	57044.97	3.1780	3.1780	-0.1071	25.02	0.25	-0.050			
0.8914	57051.81	3.1770	3.1770	-0.1068	25.02	0.25	-0.050			
0.8915	57058.63	3.1760	3.1760	-0.1065	25.02	0.25	-0.050			
0.8916	57065.44	3.1750	3.1749	-0.1062	25.02	0.25	-0.050			
0.8918	57072.22	3.1740	3.1740	-0.1058	25.03	0.26	-0.050			
0.8919	57078.99	3.1730	3.1730	-0.1055	25.03	0.26	-0.050			
0.8920	57085.71	3.1720	3.1720	-0.1052	25.03	0.26	-0.050			
0.8921	57092.43	3.1710	3.1711	-0.1049	25.03	0.26	-0.050			
0.8922	57099.13	3.1700	3.1701	-0.1046	25.03	0.26	-0.050			
0.8923	57105.81	3.1690	3.1690	-0.1043	25.03	0.26	-0.050			
0.8924	57112.53	3.1680	3.1680	-0.1038	25.02	0.25	-0.050			
0.8925	57119.17	3.1670	3.1670	-0.1035	25.02	0.25	-0.050			
0.8926	57125.88	3.1660	3.1660	-0.1033	25.02	0.25	-0.050			
0.8927	57132.48	3.1650	3.1650	-0.1029	25.02	0.25	-0.050			
0.8928	57139.05	3.1640	3.1640	-0.1026	25.02	0.25	-0.050			
0.8929	57145.61	3.1630	3.1630	-0.1022	25.02	0.25	-0.050			
0.8930	57152.09	3.1620	3.1620	-0.1019	25.02	0.25	-0.050			
0.8931	57158.55	3.1610	3.1610	-0.1014	25.02	0.25	-0.050			
0.8932	57165.03	3.1600	3.1600	-0.1011	25.02	0.25	-0.050			
0.8933	57171.49	3.1590	3.1590	-0.1008	25.02	0.25	-0.050			
0.8934	57177.93	3.1580	3.1580	-0.1004	25.02	0.25	-0.050			
0.8935	57184.35	3.1570	3.1570	-0.1001	25.02	0.25	-0.050			
0.8936	57190.71	3.1560	3.1561	-0.0999	25.02	0.25	-0.050			
0.8937	57197.09	3.1550	3.1550	-0.0996	25.02	0.25	-0.050			
0.8938	57203.43	3.1540	3.1540	-0.0993	25.02	0.25	-0.050			
0.8939	57209.78	3.1530	3.1530	-0.0990	25.02	0.25	-0.050			
0.8940	57216.11	3.1520	3.1520	-0.0987	25.01	0.24	-0.050			
0.8941	57222.41	3.1510	3.1510	-0.0984	25.01	0.24	-0.050			
0.8942	57228.70	3.1500	3.1500	-0.0981	25.01	0.24	-0.050			
0.8943	57234.96	3.1490	3.1490	-0.0979	25.01	0.24	-0.050			
0.8944	57241.16	3.1480	3.1480	-0.0975	25.01	0.24	-0.050			
0.8945	57247.39	3.1470	3.1470	-0.0973	25.01	0.24	-0.050			
0.8946	57253.61	3.1460	3.1460	-0.0970	25.00	0.23	-0.050			
0.8947	57259.81	3.1450	3.1450	-0.0968	25.00	0.23	-0.050			
0.8948	57266.00	3.1440	3.1440	-0.0966	25.00	0.23	-0.050			
0.8949	57272.17	3.1430	3.1430	-0.0963	25.00	0.23	-0.050			
0.8950	57278.45	3.1420	3.1420	-0.0960	25.00	0.23	-0.050			
0.8951	57284.58	3.1410	3.1410	-0.0956	24.99	0.22	-0.050			
0.8952	57290.69	3.1400	3.1400	-0.0953	24.99	0.22	-0.050			
0.8953	57296.78	3.1390	3.1390	-0.0950	24.99	0.22	-0.050			
0.8954	57302.85	3.1380	3.1380	-0.0947	24.99	0.22	-0.050			
0.8955	57308.90	3.1370	3.1370	-0.0943	24.99	0.22	-0.050			
0.8955	57314.97	3.1360	3.1360	-0.0941	24.99	0.22	-0.050			
0.8956	57320.98	3.1350	3.1350	-0.0937	24.99	0.22	-0.050			
0.8957	57326.97	3.1340	3.1340	-0.0934	24.99	0.22	-0.050			
0.8958	57332.94	3.1330	3.1330	-0.0930	24.99	0.22	-0.050			
0.8959	57338.88	3.1320	3.1320	-0.0927	24.99	0.22	-0.050			
0.8960	57344.80	3.1310	3.1310	-0.0923	24.99	0.22	-0.050			
0.8961	57350.64	3.1300	3.1301	-0.0922	24.99	0.22	-0.050			
0.8962	57356.50	3.1290	3.1290	-0.0918	24.99	0.22	-0.050			
0.8963	57362.36	3.1280	3.1280	-0.0915	24.98	0.21	-0.050			
0.8964	57368.21	3.1270	3.1270	-0.0912	24.98	0.21	-0.050			
0.8965	57374.04	3.1260	3.1260	-0.0909	24.98	0.21	-0.050			
0.8966	57379.84	3.1250	3.1250	-0.0906	24.98	0.21	-0.050			
0.8967	57385.63	3.1240	3.1240	-0.0903	24.98	0.21	-0.050			
0.8967	57391.40	3.1230	3.1230	-0.0900	24.97	0.20	-0.050			
0.8968	57397.02	3.1220	3.1220	-0.0897	24.97	0.20	-0.050			
0.8969	57402.75	3.1210	3.1210	-0.0894	24.97	0.20	-0.050			
0.8970	57408.47	3.1200	3.1200	-0.0892	24.97	0.20	-0.050			
0.8971	57414.17	3.1190	3.1190	-0.0890	24.97	0.20	-0.050			
0.8972	57419.86	3.1180	3.1180	-0.0888	24.97	0.20	-0.050			
0.8973	57425.54	3.1170	3.1170	-0.0886	24.97	0.20	-0.050			
0.8974	57431.19	3.1160	3.1160	-0.0883	24.98	0.21	-0.050			
0.8975	57436.92	3.1150	3.1150	-0.0880	24.98	0.21	-0.050			
0.8975	57442.55	3.1140	3.1140	-0.0877	24.98	0.21	-0.050			
0.8976	57448.15	3.1130	3.1130	-0.0874	24.98	0.21	-0.050			
0.8977	57453.74	3.1120	3.1120	-0.0872	24.98	0.21	-0.050			
0.8978	57459.31	3.1110	3.1110	-0.0869	24.98	0.21	-0.050			
0.8979	57464.93	3.1100	3.1100	-0.0867	24.98	0.21	-0.050			
0.8980	57470.47	3.1090	3.1090	-0.0864	24.98	0.21	-0.050			
0.8981	57475.96	3.1080	3.1080	-0.0862	24.98	0.21	-0.050			
0.8981	57481.46	3.1070	3.1070	-0.0859	24.97	0.20	-0.050			
0.8982	57486.95	3.1060	3.1060	-0.0856	24.97	0.20	-0.050			
0.8983	57492.42	3.1050	3.1050	-0.0853	24.97	0.20	-0.050			
0.8984	57497.87	3.1040	3.1040	-0.0850	24.97	0.20	-0.050			
0.8985	57503.30	3.1030	3.1031	-0.0847	24.97	0.20	-0.050			
0.8986	57508.73	3.1020	3.1021	-0.0844	24.97	0.20	-0.050			
0.8987	57514.08	3.1010	3.1010	-0.0842	24.97	0.20	-0.050			
0.8987	57519.46	3.1000	3.1000	-0.0839	24.97	0.20	-0.050			
0.8988	57524.83	3.0990	3.0990	-0.0836	24.97	0.20	-0.050			
0.8989	57530.17	3.0980	3.0980	-0.0834	24.97	0.20	-0.050			
0.8990	57535.50	3.0970	3.0970	-0.0831	24.97	0.20	-0.050			
0.8991	57540.81	3.0960	3.0960	-0.0828	24.97	0.20	-0.050			
0.8992	57546.02	3.0950	3.0950	-0.0824	24.97	0.20	-0.050			
0.8992	57551.29	3.0940	3.0940	-0.0822	24.97	0.20	-0.050			
0.8993	57556.52	3.0930	3.0930	-0.0820	24.97	0.20	-0.050			
0.8994	57561.77	3.0920	3.0920	-0.0818	24.97	0.20	-0.050			
0.8995	57566.99	3.0910	3.0910	-0.0816	24.97	0.20	-0.050			
0.8996	57572.21	3.0900	3.0900	-0.0814	24.97	0.20	-0.050			
0.8996	57577.41	3.0890	3.0890	-0.0811	24.97	0.20	-0.050			
0.8997	57582.60	3.0880	3.0880	-0.0809	24.97	0.20	-0.050			
0.8998	57587.77	3.0870	3.0870	-0.0807	24.96	0.19	-0.050			
0.8999	57592.93	3.0860	3.0860	-0.0805	24.96	0.19	-0.050			
0.9000	57598.10	3.0850	3.0850	-0.0802	24.96	0.19	-0.050			
0.9001	57603.23	3.0840	3.0840	-0.0799	24.96	0.19	-0.050			
0.9001	57608.34	3.0830	3.0830	-0.0797	24.96	0.19	-0.050			
0.9002	57613.43	3.0820	3.0820	-0.0795	24.96	0.19	-0.050			
0.9003	57618.51	3.0810	3.0810	-0.0792	24.96	0.19	-0.050			
0.9004	57623.60	3.0800	3.0800	-0.0789	24.96	0.19	-0.050			
0.9004	57628.65	3.0790	3.0790	-0.0787	24.95	0.18	-0.050			
0.9005	57633.67	3.0780	3.0779	-0.0784	24.95	0.18	-0.050			
0.9006	57638.68	3.0770	3.0770	-0.0781	24.95	0.18	-0.050			
0.9007	57643.68	3.0760	3.0760	-0.0779	24.95	0.18	-0.050	0.433	0.802	
0.9008	57648.65	3.0750	3.0750	-0.0776	24.95	0.18	-0.050			
0.9008	57653.61	3.0740	3.0740	-0.0774	24.94	0.17	-0.050			
0.9009	57658.61	3.0730	3.0729	-0.0771	24.94	0.17	-0.050			
0.9010	57663.48	3.0720	3.0720	-0.0770	24.94	0.17	-0.050			
0.9011	57668.40	3.0710	3.0711	-0.0767	24.94	0.17	-0.050			
0.9011	57673.30	3.0700	3.0700	-0.0765	24.94	0.17	-0.050			
0.9012	57678.18	3.0690	3.0690	-0.0762	24.94	0.17	-0.050			
0.9013	57683.05	3.0680	3.0680	-0.0759	24.93	0.16	-0.050			
0.9014	57687.90	3.0670	3.0670	-0.0757	24.93	0.16	-0.050			
0.9014	57692.74	3.0660	3.0659	-0.0754	24.93	0.16	-0.050			
0.9015	57697.43	3.0650	3.0650	-0.0752	24.93	0.16	-0.050			
0.9016	57702.23	3.0640	3.0640	-0.0750	24.93	0.16	-0.050			
0.9017	57707.03	3.0630	3.0630	-0.0748	24.92	0.15	-0.050			
0.9017	57711.81	3.0620	3.0620	-0.0747	24.92	0.15	-0.050			
0.9018	57716.59	3.0610	3.0610	-0.0745	24.92	0.15	-0.050			
0.9019	57721.31	3.0600	3.0601	-0.0743	24.92	0.15	-0.050			
0.9020	57726.06	3.0590	3.0590	-0.0741	24.92	0.15	-0.050			
0.9020	57730.80	3.0580	3.0580	-0.0740	24.91	0.14	-0.050			
0.9021	57735.57	3.0570	3.0570	-0.0737	24.91	0.14	-0.050			
0.9022	57740.28	3.0560	3.0560	-0.0735	24.91	0.14	-0.050			
0.9023	57744.98	3.0550	3.0550	-0.0733	24.91	0.14	-0.050			
0.9023	57749.67	3.0540	3.0540	-0.0732	24.90	0.13	-0.050			
0.9024	57754.35	3.0530	3.0530	-0.0730	24.90	0.13	-0.050			
0.9025	57759.04	3.0520	3.0520	-0.0728	24.90	0.13	-0.050			
0.9026	57763.69	3.0510	3.0510	-0.0726	24.90	0.13	-0.050			
0.9026	57768.40	3.0500	3.0500	-0.0724	24.89	0.12	-0.050			
0.9027	57773.02	3.0490	3.0490	-0.0721	24.89	0.12	-0.050			
0.9028	57777.63	3.0480	3.0480	-0.0719	24.89	0.12	-0.050			
0.9028	57782.22	3.0470	3.0470	-0.0717	24.89	0.12	-0.050			
0.9029	57786.80	3.0460	3.0460	-0.0714	24.89	0.12	-0.050			
0.9030	57791.44	3.0450	3.0450	-0.0713	24.88	0.11	-0.050			
0.9031	57795.99	3.0440	3.0440	-0.0710	24.88	0.11	-0.050			
0.9031	57800.53	3.0430	3.0430	-0.0708	24.88	0.11	-0.050			
0.9032	57804.96	3.0420	3.0420	-0.0707	24.88	0.11	-0.050			
0.9033	57809.47	3.0410	3.0410	-0.0705	24.88	0.11	-0.050			
0.9033	57813.98	3.0400	3.0400	-0.0702	24.87	0.10	-0.050			
0.9034	57818.47	3.0390	3.0390	-0.0700	24.87	0.10	-0.050			
0.9035	57822.94	3.0380	3.0380	-0.0698	24.87	0.10	-0.050			
0.9036	57827.34	3.0370	3.0371	-0.0695	24.87	0.10	-0.050			
0.9036	57831.78	3.0360	3.0360	-0.0693	24.87	0.10	-0.050			
0.9037	57836.21	3.0350	3.0350	-0.0691	24.87	0.10	-0.050			
0.9038	57840.63	3.0340	3.0340	-0.0690	24.87	0.10	-0.050			
0.9038	57845.04	3.0330	3.0330	-0.0688	24.87	0.10	-0.050			
0.9039	57849.43	3.0320	3.0320	-0.0686	24.87	0.10	-0.050			
0.9040	57853.82	3.0310	3.0310	-0.0684	24.86	0.09	-0.050			
0.9040	57858.15	3.0300	3.0300	-0.0682	24.86	0.09	-0.050			
0.9041	57862.51	3.0290	3.0290	-0.0680	24.86	0.09	-0.050			
0.9042	57866.85	3.0280	3.0280	-0.0678	24.86	0.09	-0.050			
0.9042	57871.19	3.0270	3.0270	-0.0677	24.86	0.09	-0.050			
0.9043	57875.52	3.0260	3.0260	-0.0675	24.86	0.09	-0.050			
0.9044	57879.89	3.0250	3.0250	-0.0672	24.86	0.09	-0.050			
0.9044	57884.19	3.0240	3.0240	-0.0671	24.86	0.09	-0.050			
0.9045	57888.47	3.0230	3.0230	-0.0669	24.86	0.09	-0.050			
0.9046	57892.83	3.0220	3.0220	-0.0668	24.85	0.08	-0.050			
0.9046	57897.10	3.0210	3.0210	-0.0666	24.85	0.08	-0.050			
0.9047	57901.36	3.0200	3.0200	-0.0664	24.85	0.08	-0.050			
0.9048	57905.60	3.0190	3.0190	-0.0662	24.85	0.08	-0.050			
0.9048	57909.82	3.0180	3.0180	-0.0659	24.84	0.07	-0.050			
0.9049	57914.00	3.0170	3.0170	-0.0658	24.84	0.07	-0.050			
0.9050	57918.21	3.0160	3.0160	-0.0656	24.84	0.07	-0.050			
0.9050	57922.40	3.0150	3.0150	-0.0654	24.84	0.07	-0.050			
0.9051	57926.55	3.0140	3.0140	-0.0651	24.83	0.06	-0.050			
0.9052	57930.71	3.0130	3.0130	-0.0649	24.83	0.06	-0.050			
0.9052	57934.86	3.0120	3.0120	-0.0648	24.83	0.06	-0.050			
0.9053	57939.00	3.0110	3.0110	-0.0646	24.83	0.06	-0.050			
0.9054	57943.12	3.0100	3.0100	-0.0644	24.82	0.05	-0.050			
0.9054	57947.24	3.0090	3.0090	-0.0642	24.82	0.05	-0.050			
0.9055	57951.34	3.0080	3.0080	-0.0640	24.82	0.05	-0.050			
0.9056	57955.43	3.0070	3.0070	-0.0638	24.82	0.05	-0.050			
0.9056	57959.50	3.0060	3.0060	-0.0636	24.82	0.05	-0.050			
0.9057	57963.51	3.0050	3.0050	-0.0636	24.81	0.04	-0.050			
0.9057	57967.58	3.0040	3.0040	-0.0635	24.81	0.04	-0.050			
0.9058	57971.64	3.0030	3.0030	-0.0634	24.81	0.04	-0.050			
0.9059	57975.70	3.0020	3.0020	-0.0633	24.81	0.04	-0.050			
