Ah_balance (normalized)	Ah_balance (mAh)	Voltage - fit (V)	Voltage -  interpolate (V)	dQ/dV (1/V)	Temperature (°C)	Temperature - diff (°C)	Current (C)	R_DC 0ms (mOhm)	R_DC 50ms (mOhm)	R_DC 50 ms PEC (mOhm)
0.0002	14.28	4.1880	4.1879	-0.4084	25.61	0.00	-0.050			
0.0006	41.22	4.1870	4.1870	-0.4335	25.61	0.00	-0.050			
0.0011	70.02	4.1860	4.1858	-0.4622	25.61	0.00	-0.050			
0.0016	100.74	4.1850	4.1849	-0.4881	25.61	-0.00	-0.050			
0.0021	132.85	4.1840	4.1839	-0.5108	25.60	-0.01	-0.050			
0.0026	166.81	4.1830	4.1829	-0.5334	25.60	-0.01	-0.050			
0.0032	202.07	4.1820	4.1819	-0.5541	25.60	-0.01	-0.050			
0.0038	240.14	4.1810	4.1810	-0.5724	25.60	-0.01	-0.050			
0.0044	278.62	4.1800	4.1803	-0.5874	25.60	-0.01	-0.050			
0.0050	316.89	4.1790	4.1790	-0.6018	25.59	-0.02	-0.050			
0.0056	356.24	4.1780	4.1779	-0.6153	25.59	-0.02	-0.050			
0.0062	396.94	4.1770	4.1769	-0.6263	25.59	-0.02	-0.050			
0.0069	440.31	4.1760	4.1761	-0.6412	25.59	-0.02	-0.050			
0.0075	481.97	4.1750	4.1749	-0.6491	25.59	-0.02	-0.050			
0.0082	524.97	4.1740	4.1739	-0.6598	25.58	-0.03	-0.050			
0.0089	568.09	4.1730	4.1730	-0.6669	25.58	-0.03	-0.050			
0.0095	611.05	4.1720	4.1723	-0.6759	25.58	-0.03	-0.050			
0.0102	655.22	4.1710	4.1707	-0.6815	25.58	-0.03	-0.050			
0.0109	699.18	4.1700	4.1699	-0.6855	25.57	-0.04	-0.050			
0.0116	744.72	4.1690	4.1689	-0.6911	25.57	-0.04	-0.050			
0.0123	789.11	4.1680	4.1680	-0.6963	25.57	-0.04	-0.050			
0.0130	834.07	4.1670	4.1670	-0.7010	25.56	-0.05	-0.050			
0.0137	878.91	4.1660	4.1659	-0.7032	25.55	-0.06	-0.050			
0.0144	923.92	4.1650	4.1649	-0.7078	25.55	-0.06	-0.050			
0.0151	969.13	4.1640	4.1642	-0.7120	25.55	-0.06	-0.050			
0.0159	1014.96	4.1630	4.1628	-0.7150	25.55	-0.06	-0.050			
0.0166	1060.99	4.1620	4.1622	-0.7196	25.54	-0.07	-0.050			
0.0173	1107.69	4.1610	4.1611	-0.7226	25.53	-0.08	-0.050			
0.0180	1154.12	4.1600	4.1598	-0.7253	25.53	-0.08	-0.050			
0.0188	1201.21	4.1590	4.1588	-0.7273	25.53	-0.08	-0.050			
0.0195	1247.67	4.1580	4.1581	-0.7293	25.53	-0.08	-0.050			
0.0202	1294.72	4.1570	4.1571	-0.7328	25.53	-0.08	-0.050	0.299	0.467	
0.0210	1341.46	4.1560	4.1559	-0.7378	25.52	-0.09	-0.050			
0.0217	1388.54	4.1550	4.1550	-0.7399	25.52	-0.09	-0.050			
0.0224	1435.70	4.1540	4.1540	-0.7418	25.53	-0.08	-0.050			
0.0232	1483.30	4.1530	4.1528	-0.7431	25.52	-0.09	-0.050			
0.0239	1531.31	4.1520	4.1521	-0.7432	25.52	-0.09	-0.050			
0.0247	1580.18	4.1510	4.1510	-0.7464	25.52	-0.09	-0.050			
0.0254	1628.50	4.1500	4.1500	-0.7477	25.52	-0.09	-0.050			
0.0262	1676.23	4.1490	4.1490	-0.7486	25.52	-0.09	-0.050			
0.0269	1723.71	4.1480	4.1481	-0.7505	25.52	-0.09	-0.050			
0.0277	1770.82	4.1470	4.1470	-0.7527	25.53	-0.08	-0.050			
0.0284	1819.50	4.1460	4.1461	-0.7563	25.53	-0.08	-0.050			
0.0292	1867.79	4.1450	4.1451	-0.7566	25.52	-0.09	-0.050			
0.0299	1916.33	4.1440	4.1440	-0.7565	25.53	-0.08	-0.050			
0.0307	1965.01	4.1430	4.1430	-0.7588	25.52	-0.09	-0.050			
0.0315	2014.08	4.1420	4.1419	-0.7602	25.52	-0.09	-0.050			
0.0322	2062.98	4.1410	4.1410	-0.7615	25.53	-0.08	-0.050			
0.0330	2112.06	4.1400	4.1398	-0.7627	25.53	-0.08	-0.050			
0.0338	2160.06	4.1390	4.1389	-0.7653	25.52	-0.09	-0.050			
0.0345	2209.07	4.1380	4.1382	-0.7673	25.53	-0.08	-0.050			
0.0353	2257.89	4.1370	4.1369	-0.7675	25.53	-0.08	-0.050			
0.0361	2307.23	4.1360	4.1361	-0.7672	25.53	-0.08	-0.050			
0.0368	2355.22	4.1350	4.1351	-0.7718	25.52	-0.09	-0.050			
0.0376	2405.69	4.1340	4.1340	-0.7757	25.52	-0.09	-0.050			
0.0384	2456.10	4.1330	4.1330	-0.7770	25.52	-0.09	-0.050			
0.0392	2506.03	4.1320	4.1319	-0.7801	25.52	-0.09	-0.050			
0.0399	2555.83	4.1310	4.1309	-0.7807	25.51	-0.10	-0.050			
0.0407	2605.81	4.1300	4.1298	-0.7817	25.51	-0.10	-0.050			
0.0415	2655.91	4.1290	4.1291	-0.7820	25.51	-0.10	-0.050			
0.0423	2705.47	4.1280	4.1281	-0.7832	25.50	-0.11	-0.050			
0.0431	2756.12	4.1270	4.1270	-0.7838	25.50	-0.11	-0.050			
0.0439	2806.83	4.1260	4.1258	-0.7863	25.49	-0.12	-0.050			
0.0446	2857.41	4.1250	4.1254	-0.7885	25.50	-0.11	-0.050			
0.0454	2907.67	4.1240	4.1241	-0.7922	25.49	-0.12	-0.050			
0.0462	2958.35	4.1230	4.1229	-0.7924	25.48	-0.13	-0.050			
0.0470	3009.74	4.1220	4.1221	-0.7942	25.48	-0.13	-0.050			
0.0478	3060.37	4.1210	4.1210	-0.7950	25.47	-0.14	-0.050			
0.0486	3111.01	4.1200	4.1200	-0.7959	25.47	-0.14	-0.050			
0.0494	3161.98	4.1190	4.1189	-0.7937	25.47	-0.14	-0.050			
0.0502	3213.19	4.1180	4.1181	-0.7953	25.48	-0.13	-0.050			
0.0510	3264.59	4.1170	4.1170	-0.7951	25.46	-0.15	-0.050			
0.0518	3315.29	4.1160	4.1159	-0.7966	25.46	-0.15	-0.050			
0.0526	3364.96	4.1150	4.1151	-0.7964	25.47	-0.14	-0.050			
0.0534	3416.63	4.1140	4.1141	-0.7997	25.47	-0.14	-0.050			
0.0542	3468.91	4.1130	4.1132	-0.8008	25.47	-0.14	-0.050			
0.0550	3520.16	4.1120	4.1121	-0.8008	25.46	-0.15	-0.050			
0.0558	3570.92	4.1110	4.1110	-0.8025	25.46	-0.15	-0.050			
0.0566	3622.00	4.1100	4.1101	-0.8047	25.47	-0.14	-0.050			
0.0574	3673.56	4.1090	4.1089	-0.8057	25.47	-0.14	-0.050			
0.0582	3724.78	4.1080	4.1080	-0.8080	25.47	-0.14	-0.050			
0.0590	3776.85	4.1070	4.1068	-0.8081	25.46	-0.15	-0.050			
0.0598	3829.03	4.1060	4.1060	-0.8095	25.48	-0.13	-0.050	0.303	0.564	
0.0606	3880.15	4.1050	4.1051	-0.8097	25.48	-0.13	-0.050			
0.0614	3931.66	4.1040	4.1041	-0.8112	25.48	-0.13	-0.050			
0.0622	3983.99	4.1030	4.1028	-0.8133	25.49	-0.12	-0.050			
0.0631	4036.60	4.1020	4.1019	-0.8156	25.49	-0.12	-0.050			
0.0639	4088.88	4.1010	4.1012	-0.8168	25.49	-0.12	-0.050			
0.0647	4141.89	4.1000	4.1000	-0.8163	25.49	-0.12	-0.050			
0.0655	4194.51	4.0990	4.0991	-0.8200	25.50	-0.11	-0.050			
0.0664	4246.98	4.0980	4.0980	-0.8208	25.51	-0.10	-0.050			
0.0672	4298.96	4.0970	4.0970	-0.8207	25.51	-0.10	-0.050			
0.0680	4350.93	4.0960	4.0960	-0.8205	25.51	-0.10	-0.050			
0.0688	4404.14	4.0950	4.0951	-0.8200	25.51	-0.10	-0.050			
0.0696	4456.82	4.0940	4.0944	-0.8218	25.52	-0.09	-0.050			
0.0705	4509.86	4.0930	4.0929	-0.8233	25.51	-0.10	-0.050			
0.0713	4562.57	4.0920	4.0921	-0.8225	25.51	-0.10	-0.050			
0.0721	4614.55	4.0910	4.0911	-0.8213	25.51	-0.10	-0.050			
0.0729	4666.74	4.0900	4.0898	-0.8221	25.51	-0.10	-0.050			
0.0737	4718.99	4.0890	4.0889	-0.8233	25.52	-0.09	-0.050			
0.0746	4772.04	4.0880	4.0880	-0.8244	25.51	-0.10	-0.050			
0.0754	4825.42	4.0870	4.0871	-0.8243	25.51	-0.10	-0.050			
0.0762	4879.05	4.0860	4.0861	-0.8243	25.50	-0.11	-0.050			
0.0770	4930.66	4.0850	4.0848	-0.8247	25.50	-0.11	-0.050			
0.0779	4983.07	4.0840	4.0839	-0.8249	25.50	-0.11	-0.050			
0.0787	5036.05	4.0830	4.0831	-0.8304	25.49	-0.12	-0.050			
0.0795	5089.43	4.0820	4.0819	-0.8295	25.49	-0.12	-0.050			
0.0804	5142.78	4.0810	4.0809	-0.8293	25.49	-0.12	-0.050			
0.0812	5195.98	4.0800	4.0800	-0.8294	25.49	-0.12	-0.050			
0.0820	5248.08	4.0790	4.0791	-0.8309	25.49	-0.12	-0.050			
0.0828	5301.07	4.0780	4.0780	-0.8324	25.48	-0.13	-0.050			
0.0837	5354.62	4.0770	4.0771	-0.8352	25.49	-0.12	-0.050			
0.0845	5408.60	4.0760	4.0757	-0.8344	25.48	-0.13	-0.050			
0.0854	5462.55	4.0750	4.0750	-0.8355	25.49	-0.12	-0.050			
0.0862	5516.22	4.0740	4.0740	-0.8353	25.48	-0.13	-0.050			
0.0870	5570.07	4.0730	4.0732	-0.8352	25.48	-0.13	-0.050			
0.0879	5623.11	4.0720	4.0719	-0.8388	25.49	-0.12	-0.050			
0.0887	5676.71	4.0710	4.0711	-0.8392	25.48	-0.13	-0.050			
0.0896	5731.36	4.0700	4.0699	-0.8363	25.49	-0.12	-0.050			
0.0904	5784.71	4.0690	4.0692	-0.8369	25.49	-0.12	-0.050			
0.0912	5838.43	4.0680	4.0681	-0.8403	25.49	-0.12	-0.050			
0.0921	5891.62	4.0670	4.0672	-0.8440	25.50	-0.11	-0.050			
0.0929	5945.55	4.0660	4.0659	-0.8447	25.50	-0.11	-0.050			
0.0937	5998.71	4.0650	4.0649	-0.8416	25.50	-0.11	-0.050			
0.0946	6052.99	4.0640	4.0639	-0.8418	25.50	-0.11	-0.050			
0.0954	6106.68	4.0630	4.0630	-0.8425	25.51	-0.10	-0.050			
0.0963	6160.75	4.0620	4.0624	-0.8477	25.51	-0.10	-0.050			
0.0971	6215.17	4.0610	4.0608	-0.8502	25.51	-0.10	-0.050			
0.0980	6269.34	4.0600	4.0598	-0.8503	25.51	-0.10	-0.050			
0.0988	6324.08	4.0590	4.0588	-0.8468	25.51	-0.10	-0.050			
0.0997	6378.54	4.0580	4.0580	-0.8493	25.52	-0.09	-0.050			
0.1005	6433.23	4.0570	4.0570	-0.8509	25.51	-0.10	-0.050			
0.1014	6488.02	4.0560	4.0561	-0.8519	25.52	-0.09	-0.050			
0.1022	6542.84	4.0550	4.0549	-0.8516	25.52	-0.09	-0.050			
0.1031	6597.44	4.0540	4.0539	-0.8520	25.51	-0.10	-0.050			
0.1039	6651.76	4.0530	4.0530	-0.8510	25.52	-0.09	-0.050			
0.1048	6705.87	4.0520	4.0520	-0.8508	25.51	-0.10	-0.050			
0.1056	6760.62	4.0510	4.0513	-0.8512	25.51	-0.10	-0.050			
0.1065	6816.67	4.0500	4.0501	-0.8547	25.50	-0.11	-0.050			
0.1073	6870.37	4.0490	4.0490	-0.8548	25.51	-0.10	-0.050			
0.1082	6924.12	4.0480	4.0480	-0.8529	25.49	-0.12	-0.050			
0.1090	6977.99	4.0470	4.0471	-0.8566	25.50	-0.11	-0.050			
0.1099	7032.95	4.0460	4.0461	-0.8570	25.49	-0.12	-0.050			
0.1108	7089.06	4.0450	4.0450	-0.8600	25.48	-0.13	-0.050			
0.1116	7143.40	4.0440	4.0439	-0.8630	25.48	-0.13	-0.050			
0.1125	7198.33	4.0430	4.0431	-0.8631	25.49	-0.12	-0.050			
0.1133	7253.19	4.0420	4.0421	-0.8648	25.47	-0.14	-0.050			
0.1142	7309.33	4.0410	4.0410	-0.8640	25.47	-0.14	-0.050			
0.1151	7365.87	4.0400	4.0397	-0.8661	25.46	-0.15	-0.050			
0.1160	7421.86	4.0390	4.0392	-0.8695	25.46	-0.15	-0.050			
0.1168	7477.69	4.0380	4.0379	-0.8707	25.46	-0.15	-0.050			
0.1177	7533.37	4.0370	4.0371	-0.8700	25.46	-0.15	-0.050			
0.1186	7588.96	4.0360	4.0362	-0.8720	25.45	-0.16	-0.050			
0.1195	7645.68	4.0350	4.0348	-0.8705	25.45	-0.16	-0.050			
0.1203	7701.22	4.0340	4.0340	-0.8715	25.44	-0.17	-0.050	0.577	0.545	
0.1212	7756.47	4.0330	4.0331	-0.8713	25.44	-0.17	-0.050			
0.1221	7811.86	4.0320	4.0321	-0.8738	25.44	-0.17	-0.050			
0.1229	7867.35	4.0310	4.0309	-0.8748	25.44	-0.17	-0.050			
0.1238	7924.19	4.0300	4.0301	-0.8748	25.44	-0.17	-0.050			
0.1247	7979.45	4.0290	4.0292	-0.8722	25.44	-0.17	-0.050			
0.1256	8036.30	4.0280	4.0281	-0.8720	25.44	-0.17	-0.050			
0.1264	8092.06	4.0270	4.0268	-0.8687	25.43	-0.18	-0.050			
0.1273	8147.18	4.0260	4.0260	-0.8712	25.45	-0.16	-0.050			
0.1282	8203.10	4.0250	4.0250	-0.8738	25.45	-0.16	-0.050			
0.1290	8257.98	4.0240	4.0243	-0.8733	25.45	-0.16	-0.050			
0.1299	8314.77	4.0230	4.0231	-0.8752	25.45	-0.16	-0.050			
0.1308	8371.10	4.0220	4.0223	-0.8761	25.45	-0.16	-0.050			
0.1317	8427.73	4.0210	4.0213	-0.8762	25.45	-0.16	-0.050			
0.1326	8483.45	4.0200	4.0197	-0.8779	25.45	-0.16	-0.050			
0.1334	8538.80	4.0190	4.0191	-0.8757	25.45	-0.16	-0.050			
0.1343	8594.69	4.0180	4.0181	-0.8797	25.45	-0.16	-0.050			
0.1352	8650.99	4.0170	4.0168	-0.8802	25.45	-0.16	-0.050			
0.1360	8706.98	4.0160	4.0162	-0.8815	25.46	-0.15	-0.050			
0.1369	8763.97	4.0150	4.0149	-0.8837	25.45	-0.16	-0.050			
0.1378	8820.08	4.0140	4.0141	-0.8824	25.45	-0.16	-0.050			
0.1387	8876.86	4.0130	4.0128	-0.8829	25.45	-0.16	-0.050			
0.1396	8932.92	4.0120	4.0118	-0.8863	25.46	-0.15	-0.050			
0.1405	8989.44	4.0110	4.0111	-0.8924	25.45	-0.16	-0.050	0.299	0.397	
0.1414	9047.05	4.0100	4.0100	-0.8958	25.45	-0.16	-0.050			
0.1423	9105.44	4.0090	4.0089	-0.8980	25.45	-0.16	-0.050			
0.1432	9163.09	4.0080	4.0081	-0.8984	25.46	-0.15	-0.050			
0.1441	9220.60	4.0070	4.0071	-0.8997	25.46	-0.15	-0.050			
0.1450	9277.13	4.0060	4.0060	-0.8991	25.46	-0.15	-0.050			
0.1459	9335.06	4.0050	4.0048	-0.9007	25.47	-0.14	-0.050			
0.1468	9393.82	4.0040	4.0039	-0.9019	25.48	-0.13	-0.050			
0.1477	9452.30	4.0030	4.0028	-0.9039	25.47	-0.14	-0.050			
0.1486	9510.88	4.0020	4.0022	-0.9028	25.48	-0.13	-0.050			
0.1495	9569.05	4.0010	4.0013	-0.9012	25.48	-0.13	-0.050			
0.1504	9626.25	4.0000	4.0000	-0.8990	25.48	-0.13	-0.050			
0.1513	9684.71	3.9990	3.9990	-0.8974	25.49	-0.12	-0.050			
0.1522	9740.70	3.9980	3.9978	-0.9003	25.49	-0.12	-0.050			
0.1531	9799.07	3.9970	3.9969	-0.9023	25.49	-0.12	-0.050			
0.1540	9856.04	3.9960	3.9963	-0.9041	25.49	-0.12	-0.050			
0.1549	9913.12	3.9950	3.9951	-0.9057	25.50	-0.11	-0.050			
0.1558	9970.95	3.9940	3.9940	-0.9066	25.50	-0.11	-0.050			
0.1567	10028.40	3.9930	3.9931	-0.9088	25.50	-0.11	-0.050			
0.1576	10085.29	3.9920	3.9922	-0.9080	25.51	-0.10	-0.050			
0.1585	10142.86	3.9910	3.9909	-0.9100	25.51	-0.10	-0.050			
0.1594	10202.13	3.9900	3.9900	-0.9151	25.51	-0.10	-0.050			
0.1603	10261.17	3.9890	3.9891	-0.9172	25.52	-0.09	-0.050	0.181	0.469	
0.1613	10320.02	3.9880	3.9882	-0.9186	25.53	-0.08	-0.050			
0.1622	10379.32	3.9870	3.9870	-0.9207	25.53	-0.08	-0.050			
0.1631	10438.87	3.9860	3.9861	-0.9217	25.53	-0.08	-0.050			
0.1640	10498.19	3.9850	3.9851	-0.9244	25.53	-0.08	-0.050			
0.1650	10558.68	3.9840	3.9840	-0.9267	25.54	-0.07	-0.050			
0.1659	10617.68	3.9830	3.9830	-0.9289	25.54	-0.07	-0.050			
0.1669	10678.50	3.9820	3.9820	-0.9295	25.54	-0.07	-0.050			
0.1678	10738.11	3.9810	3.9810	-0.9307	25.53	-0.08	-0.050			
0.1687	10797.51	3.9800	3.9799	-0.9287	25.54	-0.07	-0.050			
0.1696	10856.40	3.9790	3.9789	-0.9278	25.54	-0.07	-0.050			
0.1705	10914.79	3.9780	3.9782	-0.9270	25.55	-0.06	-0.050			
0.1715	10974.48	3.9770	3.9770	-0.9276	25.54	-0.07	-0.050			
0.1724	11032.52	3.9760	3.9762	-0.9291	25.53	-0.08	-0.050			
0.1733	11091.99	3.9750	3.9749	-0.9303	25.54	-0.07	-0.050			
0.1742	11151.87	3.9740	3.9742	-0.9318	25.54	-0.07	-0.050			
0.1752	11211.86	3.9730	3.9730	-0.9330	25.55	-0.06	-0.050			
0.1761	11271.12	3.9720	3.9721	-0.9342	25.55	-0.06	-0.050			
0.1770	11330.57	3.9710	3.9708	-0.9349	25.54	-0.07	-0.050			
0.1780	11390.64	3.9700	3.9698	-0.9377	25.54	-0.07	-0.050			
0.1789	11451.06	3.9690	3.9690	-0.9384	25.54	-0.07	-0.050			
0.1799	11512.49	3.9680	3.9680	-0.9352	25.54	-0.07	-0.050	0.184	0.402	
0.1808	11572.76	3.9670	3.9670	-0.9350	25.54	-0.07	-0.050			
0.1817	11632.00	3.9660	3.9660	-0.9366	25.54	-0.07	-0.050			
0.1827	11692.50	3.9650	3.9650	-0.9387	25.54	-0.07	-0.050			
0.1836	11752.61	3.9640	3.9640	-0.9362	25.54	-0.07	-0.050			
0.1846	11811.72	3.9630	3.9630	-0.9400	25.53	-0.08	-0.050			
0.1855	11871.81	3.9620	3.9621	-0.9421	25.53	-0.08	-0.050			
0.1864	11932.13	3.9610	3.9611	-0.9442	25.54	-0.07	-0.050			
0.1874	11992.45	3.9600	3.9601	-0.9413	25.53	-0.08	-0.050			
0.1883	12053.09	3.9590	3.9589	-0.9408	25.53	-0.08	-0.050			
0.1893	12112.83	3.9580	3.9576	-0.9389	25.52	-0.09	-0.050			
0.1902	12172.35	3.9570	3.9569	-0.9442	25.52	-0.09	-0.050			
0.1911	12232.18	3.9560	3.9561	-0.9428	25.51	-0.10	-0.050			
0.1921	12292.94	3.9550	3.9549	-0.9435	25.52	-0.09	-0.050			
0.1930	12353.46	3.9540	3.9540	-0.9470	25.52	-0.09	-0.050			
0.1940	12413.57	3.9530	3.9531	-0.9520	25.51	-0.10	-0.050			
0.1949	12474.38	3.9520	3.9522	-0.9521	25.51	-0.10	-0.050			
0.1959	12535.66	3.9510	3.9512	-0.9549	25.50	-0.11	-0.050			
0.1968	12597.31	3.9500	3.9499	-0.9574	25.50	-0.11	-0.050			
0.1978	12658.81	3.9490	3.9489	-0.9601	25.49	-0.12	-0.050			
0.1988	12721.65	3.9480	3.9477	-0.9619	25.49	-0.12	-0.050			
0.1997	12782.46	3.9470	3.9471	-0.9629	25.48	-0.13	-0.050	0.325	0.600	
0.2007	12843.62	3.9460	3.9460	-0.9604	25.48	-0.13	-0.050			
0.2016	12905.34	3.9450	3.9448	-0.9619	25.48	-0.13	-0.050			
0.2026	12967.47	3.9440	3.9440	-0.9643	25.47	-0.14	-0.050			
0.2036	13028.29	3.9430	3.9432	-0.9626	25.48	-0.13	-0.050			
0.2045	13090.28	3.9420	3.9420	-0.9672	25.47	-0.14	-0.050			
0.2055	13153.39	3.9410	3.9409	-0.9694	25.48	-0.13	-0.050			
0.2065	13216.02	3.9400	3.9399	-0.9702	25.47	-0.14	-0.050			
0.2075	13278.61	3.9390	3.9390	-0.9711	25.48	-0.13	-0.050			
0.2084	13340.36	3.9380	3.9378	-0.9680	25.47	-0.14	-0.050			
0.2094	13401.63	3.9370	3.9370	-0.9659	25.48	-0.13	-0.050			
0.2104	13463.48	3.9360	3.9358	-0.9687	25.49	-0.12	-0.050			
0.2113	13526.15	3.9350	3.9348	-0.9700	25.49	-0.12	-0.050			
0.2123	13587.48	3.9340	3.9342	-0.9676	25.50	-0.11	-0.050			
0.2133	13649.03	3.9330	3.9330	-0.9678	25.50	-0.11	-0.050			
0.2142	13710.85	3.9320	3.9322	-0.9701	25.50	-0.11	-0.050			
0.2152	13773.59	3.9310	3.9310	-0.9706	25.50	-0.11	-0.050			
0.2162	13835.77	3.9300	3.9299	-0.9704	25.51	-0.10	-0.050			
0.2172	13898.38	3.9290	3.9291	-0.9689	25.51	-0.10	-0.050			
0.2181	13959.92	3.9280	3.9278	-0.9704	25.53	-0.08	-0.050			
0.2191	14021.71	3.9270	3.9269	-0.9705	25.52	-0.09	-0.050			
0.2201	14083.94	3.9260	3.9260	-0.9710	25.53	-0.08	-0.050			
0.2210	14146.09	3.9250	3.9249	-0.9704	25.53	-0.08	-0.050			
0.2220	14208.14	3.9240	3.9240	-0.9701	25.53	-0.08	-0.050			
0.2230	14270.75	3.9230	3.9230	-0.9714	25.53	-0.08	-0.050			
0.2239	14332.21	3.9220	3.9221	-0.9716	25.54	-0.07	-0.050			
0.2249	14395.04	3.9210	3.9210	-0.9710	25.53	-0.08	-0.050			
0.2259	14458.05	3.9200	3.9201	-0.9702	25.53	-0.08	-0.050			
0.2269	14520.26	3.9190	3.9190	-0.9696	25.54	-0.07	-0.050			
0.2278	14582.32	3.9180	3.9181	-0.9713	25.54	-0.07	-0.050			
0.2288	14642.83	3.9170	3.9170	-0.9731	25.54	-0.07	-0.050			
0.2298	14704.60	3.9160	3.9159	-0.9732	25.53	-0.08	-0.050			
0.2307	14767.44	3.9150	3.9149	-0.9760	25.54	-0.07	-0.050			
0.2317	14830.04	3.9140	3.9139	-0.9764	25.53	-0.08	-0.050			
0.2327	14892.77	3.9130	3.9130	-0.9748	25.54	-0.07	-0.050			
0.2337	14954.04	3.9120	3.9122	-0.9795	25.53	-0.08	-0.050			
0.2346	15017.57	3.9110	3.9110	-0.9812	25.53	-0.08	-0.050			
0.2356	15080.76	3.9100	3.9097	-0.9828	25.53	-0.08	-0.050			
0.2366	15143.58	3.9090	3.9091	-0.9833	25.53	-0.08	-0.050			
0.2376	15206.29	3.9080	3.9080	-0.9826	25.53	-0.08	-0.050			
0.2386	15269.56	3.9070	3.9070	-0.9819	25.53	-0.08	-0.050			
0.2396	15333.32	3.9060	3.9060	-0.9851	25.53	-0.08	-0.050			
0.2406	15395.71	3.9050	3.9051	-0.9863	25.52	-0.09	-0.050	0.198	0.390	
0.2415	15459.03	3.9040	3.9038	-0.9892	25.52	-0.09	-0.050			
0.2425	15521.84	3.9030	3.9030	-0.9903	25.52	-0.09	-0.050			
0.2435	15585.36	3.9020	3.9023	-0.9932	25.52	-0.09	-0.050			
0.2445	15649.33	3.9010	3.9009	-0.9965	25.52	-0.09	-0.050			
0.2455	15713.10	3.9000	3.8999	-0.9986	25.53	-0.08	-0.050			
0.2465	15776.01	3.8990	3.8990	-0.9975	25.53	-0.08	-0.050			
0.2475	15840.02	3.8980	3.8976	-0.9998	25.53	-0.08	-0.050			
0.2485	15903.74	3.8970	3.8968	-0.9996	25.52	-0.09	-0.050			
0.2495	15968.54	3.8960	3.8959	-0.9998	25.52	-0.09	-0.050			
0.2505	16034.75	3.8950	3.8951	-0.9988	25.53	-0.08	-0.050			
0.2515	16098.62	3.8940	3.8940	-0.9959	25.52	-0.09	-0.050			
0.2525	16163.06	3.8930	3.8930	-0.9964	25.52	-0.09	-0.050			
0.2535	16226.33	3.8920	3.8917	-0.9928	25.52	-0.09	-0.050			
0.2545	16290.50	3.8910	3.8911	-0.9947	25.52	-0.09	-0.050			
0.2555	16354.96	3.8900	3.8900	-0.9940	25.53	-0.08	-0.050			
0.2565	16418.21	3.8890	3.8892	-0.9932	25.52	-0.09	-0.050			
0.2575	16480.57	3.8880	3.8882	-0.9970	25.52	-0.09	-0.050			
0.2585	16545.07	3.8870	3.8870	-0.9980	25.52	-0.09	-0.050			
0.2595	16607.46	3.8860	3.8859	-0.9950	25.52	-0.09	-0.050			
0.2605	16670.07	3.8850	3.8849	-0.9952	25.51	-0.10	-0.050			
0.2614	16732.43	3.8840	3.8839	-0.9979	25.49	-0.12	-0.050			
0.2624	16795.78	3.8830	3.8830	-1.0012	25.50	-0.11	-0.050			
0.2634	16859.79	3.8820	3.8820	-1.0028	25.51	-0.10	-0.050			
0.2644	16923.93	3.8810	3.8807	-1.0037	25.49	-0.12	-0.050			
0.2655	16989.52	3.8800	3.8798	-1.0042	25.49	-0.12	-0.050			
0.2665	17054.03	3.8790	3.8791	-1.0072	25.49	-0.12	-0.050			
0.2675	17119.34	3.8780	3.8782	-1.0113	25.48	-0.13	-0.050			
0.2685	17185.08	3.8770	3.8769	-1.0171	25.49	-0.12	-0.050			
0.2695	17251.13	3.8760	3.8760	-1.0173	25.49	-0.12	-0.050			
0.2706	17317.60	3.8750	3.8748	-1.0174	25.48	-0.13	-0.050			
0.2716	17382.30	3.8740	3.8741	-1.0160	25.49	-0.12	-0.050			
0.2726	17447.33	3.8730	3.8732	-1.0143	25.49	-0.12	-0.050			
0.2736	17511.86	3.8720	3.8721	-1.0137	25.50	-0.11	-0.050			
0.2746	17576.18	3.8710	3.8708	-1.0151	25.50	-0.11	-0.050			
0.2756	17641.38	3.8700	3.8698	-1.0142	25.51	-0.10	-0.050			
0.2767	17705.79	3.8690	3.8690	-1.0133	25.51	-0.10	-0.050			
0.2777	17770.29	3.8680	3.8680	-1.0098	25.51	-0.10	-0.050			
0.2787	17835.55	3.8670	3.8672	-1.0125	25.52	-0.09	-0.050			
0.2797	17900.65	3.8660	3.8660	-1.0106	25.52	-0.09	-0.050			
0.2807	17964.33	3.8650	3.8650	-1.0091	25.53	-0.08	-0.050			
0.2817	18028.51	3.8640	3.8642	-1.0084	25.53	-0.08	-0.050			
0.2827	18093.42	3.8630	3.8630	-1.0088	25.54	-0.07	-0.050			
0.2837	18158.84	3.8620	3.8621	-1.0104	25.55	-0.06	-0.050			
0.2847	18223.02	3.8610	3.8612	-1.0142	25.55	-0.06	-0.050			
0.2857	18287.35	3.8600	3.8601	-1.0151	25.55	-0.06	-0.050			
0.2867	18350.93	3.8590	3.8590	-1.0157	25.56	-0.05	-0.050			
0.2877	18415.73	3.8580	3.8579	-1.0197	25.56	-0.05	-0.050			
0.2888	18481.22	3.8570	3.8571	-1.0202	25.57	-0.04	-0.050			
0.2898	18547.77	3.8560	3.8559	-1.0229	25.57	-0.04	-0.050			
0.2908	18613.96	3.8550	3.8551	-1.0229	25.57	-0.04	-0.050			
0.2919	18678.96	3.8540	3.8539	-1.0222	25.58	-0.03	-0.050			
0.2929	18745.21	3.8530	3.8528	-1.0209	25.57	-0.04	-0.050			
0.2939	18809.40	3.8520	3.8519	-1.0256	25.57	-0.04	-0.050			
0.2949	18875.20	3.8510	3.8513	-1.0268	25.57	-0.04	-0.050			
0.2960	18941.86	3.8500	3.8500	-1.0271	25.57	-0.04	-0.050			
0.2970	19008.28	3.8490	3.8492	-1.0295	25.56	-0.05	-0.050			
0.2980	19073.78	3.8480	3.8481	-1.0334	25.57	-0.04	-0.050			
0.2991	19140.10	3.8470	3.8470	-1.0331	25.56	-0.05	-0.050			
0.3001	19206.41	3.8460	3.8459	-1.0353	25.56	-0.05	-0.050	0.274	0.554	
0.3011	19272.92	3.8450	3.8450	-1.0329	25.56	-0.05	-0.050			
0.3022	19338.91	3.8440	3.8438	-1.0334	25.56	-0.05	-0.050			
0.3032	19404.73	3.8430	3.8427	-1.0350	25.56	-0.05	-0.050			
0.3042	19470.12	3.8420	3.8421	-1.0350	25.55	-0.06	-0.050			
0.3052	19535.51	3.8410	3.8411	-1.0343	25.55	-0.06	-0.050			
0.3063	19603.11	3.8400	3.8399	-1.0335	25.56	-0.05	-0.050			
0.3073	19669.28	3.8390	3.8390	-1.0338	25.56	-0.05	-0.050			
0.3084	19735.82	3.8380	3.8382	-1.0364	25.55	-0.06	-0.050			
0.3094	19802.58	3.8370	3.8371	-1.0407	25.55	-0.06	-0.050			
0.3105	19869.77	3.8360	3.8359	-1.0401	25.55	-0.06	-0.050			
0.3115	19936.06	3.8350	3.8347	-1.0402	25.55	-0.06	-0.050			
0.3125	20003.02	3.8340	3.8340	-1.0407	25.55	-0.06	-0.050			
0.3136	20069.06	3.8330	3.8332	-1.0392	25.55	-0.06	-0.050			
0.3146	20135.24	3.8320	3.8322	-1.0331	25.55	-0.06	-0.050			
0.3157	20202.28	3.8310	3.8312	-1.0344	25.55	-0.06	-0.050			
0.3167	20268.98	3.8300	3.8297	-1.0349	25.55	-0.06	-0.050			
0.3177	20334.54	3.8290	3.8289	-1.0325	25.55	-0.06	-0.050			
0.3187	20399.94	3.8280	3.8280	-1.0326	25.54	-0.07	-0.050			
0.3198	20466.83	3.8270	3.8270	-1.0331	25.54	-0.07	-0.050			
0.3208	20532.86	3.8260	3.8258	-1.0335	25.53	-0.08	-0.050			
0.3219	20599.48	3.8250	3.8250	-1.0327	25.54	-0.07	-0.050			
0.3229	20665.03	3.8240	3.8242	-1.0305	25.53	-0.08	-0.050			
0.3239	20729.85	3.8230	3.8231	-1.0325	25.53	-0.08	-0.050			
0.3249	20796.30	3.8220	3.8219	-1.0323	25.53	-0.08	-0.050			
0.3260	20862.85	3.8210	3.8210	-1.0320	25.53	-0.08	-0.050			
0.3270	20928.97	3.8200	3.8201	-1.0339	25.52	-0.09	-0.050			
0.3280	20994.82	3.8190	3.8190	-1.0327	25.52	-0.09	-0.050			
0.3291	21060.40	3.8180	3.8182	-1.0304	25.52	-0.09	-0.050			
0.3301	21126.38	3.8170	3.8171	-1.0301	25.52	-0.09	-0.050			
0.3311	21192.32	3.8160	3.8160	-1.0298	25.51	-0.10	-0.050			
0.3322	21257.98	3.8150	3.8148	-1.0335	25.51	-0.10	-0.050			
0.3332	21324.90	3.8140	3.8138	-1.0343	25.52	-0.09	-0.050			
0.3343	21392.53	3.8130	3.8132	-1.0333	25.51	-0.10	-0.050			
0.3353	21459.26	3.8120	3.8119	-1.0326	25.51	-0.10	-0.050			
0.3363	21524.72	3.8110	3.8111	-1.0302	25.52	-0.09	-0.050			
0.3373	21590.23	3.8100	3.8102	-1.0296	25.52	-0.09	-0.050			
0.3384	21656.67	3.8090	3.8089	-1.0272	25.54	-0.07	-0.050			
0.3394	21722.25	3.8080	3.8078	-1.0256	25.52	-0.09	-0.050			
0.3404	21788.32	3.8070	3.8068	-1.0232	25.54	-0.07	-0.050	0.415	0.476	
0.3415	21854.53	3.8060	3.8059	-1.0198	25.54	-0.07	-0.050			
0.3425	21919.86	3.8050	3.8053	-1.0152	25.54	-0.07	-0.050			
0.3435	21985.26	3.8040	3.8041	-1.0110	25.55	-0.06	-0.050			
0.3445	22050.22	3.8030	3.8027	-1.0044	25.55	-0.06	-0.050			
0.3455	22115.11	3.8020	3.8020	-1.0000	25.56	-0.05	-0.050			
0.3465	22179.19	3.8010	3.8012	-0.9975	25.56	-0.05	-0.050			
0.3475	22242.45	3.8000	3.8001	-0.9921	25.57	-0.04	-0.050			
0.3485	22306.28	3.7990	3.7991	-0.9871	25.58	-0.03	-0.050			
0.3495	22369.16	3.7980	3.7982	-0.9823	25.58	-0.03	-0.050			
0.3505	22431.69	3.7970	3.7968	-0.9751	25.58	-0.03	-0.050			
0.3515	22493.72	3.7960	3.7960	-0.9685	25.58	-0.03	-0.050			
0.3524	22554.86	3.7950	3.7949	-0.9622	25.59	-0.02	-0.050			
0.3534	22617.52	3.7940	3.7938	-0.9578	25.59	-0.02	-0.050			
0.3544	22679.08	3.7930	3.7931	-0.9504	25.59	-0.02	-0.050			
0.3553	22739.56	3.7920	3.7919	-0.9403	25.59	-0.02	-0.050			
0.3562	22799.68	3.7910	3.7911	-0.9318	25.59	-0.02	-0.050			
0.3572	22859.09	3.7900	3.7901	-0.9254	25.59	-0.02	-0.050			
0.3581	22918.92	3.7890	3.7890	-0.9186	25.59	-0.02	-0.050			
0.3590	22977.86	3.7880	3.7880	-0.9111	25.59	-0.02	-0.050			
0.3599	23036.51	3.7870	3.7870	-0.9019	25.59	-0.02	-0.050	0.153	0.441	
0.3609	23094.44	3.7860	3.7858	-0.8934	25.59	-0.02	-0.050			
0.3617	23151.79	3.7850	3.7850	-0.8852	25.58	-0.03	-0.050			
0.3626	23208.54	3.7840	3.7839	-0.8720	25.58	-0.03	-0.050			
0.3635	23263.54	3.7830	3.7831	-0.8629	25.58	-0.03	-0.050			
0.3643	23318.16	3.7820	3.7818	-0.8536	25.57	-0.04	-0.050			
0.3652	23371.59	3.7810	3.7810	-0.8409	25.57	-0.04	-0.050			
0.3660	23425.59	3.7800	3.7800	-0.8311	25.57	-0.04	-0.050			
0.3669	23478.52	3.7790	3.7789	-0.8220	25.56	-0.05	-0.050			
0.3677	23530.29	3.7780	3.7782	-0.8123	25.56	-0.05	-0.050			
0.3685	23582.05	3.7770	3.7768	-0.8033	25.56	-0.05	-0.050			
0.3693	23633.17	3.7760	3.7759	-0.7942	25.56	-0.05	-0.050			
0.3701	23683.38	3.7750	3.7752	-0.7842	25.55	-0.06	-0.050			
0.3708	23733.13	3.7740	3.7737	-0.7745	25.55	-0.06	-0.050			
0.3716	23782.69	3.7730	3.7729	-0.7671	25.55	-0.06	-0.050			
0.3724	23831.05	3.7720	3.7723	-0.7589	25.55	-0.06	-0.050			
0.3731	23879.61	3.7710	3.7711	-0.7494	25.54	-0.07	-0.050			
0.3739	23926.55	3.7700	3.7699	-0.7386	25.54	-0.07	-0.050			
0.3746	23973.71	3.7690	3.7689	-0.7322	25.54	-0.07	-0.050			
0.3753	24020.19	3.7680	3.7681	-0.7240	25.55	-0.06	-0.050			
0.3760	24066.85	3.7670	3.7669	-0.7183	25.55	-0.06	-0.050			
0.3768	24112.75	3.7660	3.7661	-0.7090	25.54	-0.07	-0.050			
0.3775	24157.65	3.7650	3.7648	-0.7000	25.53	-0.08	-0.050			
0.3782	24202.16	3.7640	3.7641	-0.6921	25.53	-0.08	-0.050			
0.3788	24245.87	3.7630	3.7630	-0.6827	25.53	-0.08	-0.050			
0.3795	24288.35	3.7620	3.7621	-0.6759	25.53	-0.08	-0.050			
0.3802	24331.18	3.7610	3.7610	-0.6724	25.53	-0.08	-0.050			
0.3808	24373.74	3.7600	3.7601	-0.6689	25.52	-0.09	-0.050			
0.3815	24415.60	3.7590	3.7593	-0.6643	25.53	-0.08	-0.050			
0.3821	24456.79	3.7580	3.7580	-0.6587	25.53	-0.08	-0.050			
0.3828	24498.24	3.7570	3.7571	-0.6576	25.52	-0.09	-0.050			
0.3834	24539.69	3.7560	3.7560	-0.6546	25.52	-0.09	-0.050			
0.3841	24580.56	3.7550	3.7549	-0.6543	25.52	-0.09	-0.050			
0.3847	24621.74	3.7540	3.7539	-0.6541	25.51	-0.10	-0.050			
0.3854	24662.89	3.7530	3.7527	-0.6545	25.52	-0.09	-0.050			
0.3860	24704.02	3.7520	3.7520	-0.6556	25.52	-0.09	-0.050			
0.3866	24745.08	3.7510	3.7510	-0.6599	25.52	-0.09	-0.050			
0.3873	24787.27	3.7500	3.7502	-0.6638	25.52	-0.09	-0.050			
0.3880	24828.86	3.7490	3.7490	-0.6651	25.52	-0.09	-0.050			
0.3886	24872.39	3.7480	3.7480	-0.6677	25.51	-0.10	-0.050			
0.3893	24915.55	3.7470	3.7471	-0.6731	25.50	-0.11	-0.050			
0.3900	24959.06	3.7460	3.7458	-0.6771	25.51	-0.10	-0.050			
0.3907	25002.44	3.7450	3.7449	-0.6812	25.51	-0.10	-0.050			
0.3914	25046.91	3.7440	3.7440	-0.6839	25.51	-0.10	-0.050			
0.3920	25089.53	3.7430	3.7429	-0.6922	25.51	-0.10	-0.050			
0.3927	25132.78	3.7420	3.7420	-0.6992	25.51	-0.10	-0.050			
0.3934	25176.86	3.7410	3.7412	-0.7061	25.51	-0.10	-0.050			
0.3941	25221.12	3.7400	3.7402	-0.7151	25.50	-0.11	-0.050			
0.3948	25266.91	3.7390	3.7390	-0.7246	25.50	-0.11	-0.050			
0.3955	25313.58	3.7380	3.7378	-0.7335	25.50	-0.11	-0.050			
0.3963	25360.24	3.7370	3.7369	-0.7435	25.51	-0.10	-0.050			
0.3970	25408.13	3.7360	3.7359	-0.7513	25.51	-0.10	-0.050			
0.3977	25455.72	3.7350	3.7348	-0.7649	25.51	-0.10	-0.050			
0.3985	25504.73	3.7340	3.7337	-0.7745	25.51	-0.10	-0.050			
0.3993	25554.55	3.7330	3.7332	-0.7872	25.51	-0.10	-0.050			
0.4001	25604.54	3.7320	3.7320	-0.8015	25.51	-0.10	-0.050	0.010	0.581	
0.4009	25655.92	3.7310	3.7311	-0.8136	25.51	-0.10	-0.050			
0.4017	25707.71	3.7300	3.7300	-0.8289	25.51	-0.10	-0.050			
0.4025	25761.56	3.7290	3.7293	-0.8460	25.51	-0.10	-0.050			
0.4034	25816.56	3.7280	3.7279	-0.8613	25.51	-0.10	-0.050			
0.4042	25871.20	3.7270	3.7271	-0.8803	25.51	-0.10	-0.050			
0.4051	25927.25	3.7260	3.7258	-0.8955	25.51	-0.10	-0.050			
0.4060	25983.83	3.7250	3.7251	-0.9169	25.51	-0.10	-0.050			
0.4069	26042.27	3.7240	3.7237	-0.9357	25.52	-0.09	-0.050			
0.4078	26102.08	3.7230	3.7231	-0.9491	25.52	-0.09	-0.050			
0.4088	26163.49	3.7220	3.7223	-0.9669	25.52	-0.09	-0.050			
0.4098	26226.24	3.7210	3.7207	-0.9875	25.52	-0.09	-0.050			
0.4108	26290.08	3.7200	3.7201	-1.0064	25.52	-0.09	-0.050			
0.4118	26355.61	3.7190	3.7189	-1.0273	25.52	-0.09	-0.050			
0.4128	26421.96	3.7180	3.7178	-1.0518	25.52	-0.09	-0.050			
0.4139	26489.64	3.7170	3.7170	-1.0714	25.53	-0.08	-0.050			
0.4150	26559.05	3.7160	3.7160	-1.0903	25.53	-0.08	-0.050			
0.4161	26629.90	3.7150	3.7151	-1.1078	25.53	-0.08	-0.050			
0.4172	26702.35	3.7140	3.7140	-1.1264	25.54	-0.07	-0.050			
0.4184	26775.16	3.7130	3.7128	-1.1451	25.53	-0.08	-0.050			
0.4195	26849.45	3.7120	3.7118	-1.1619	25.52	-0.09	-0.050			
0.4207	26924.36	3.7110	3.7109	-1.1824	25.53	-0.08	-0.050	0.303	0.512	
0.4219	26999.71	3.7100	3.7101	-1.2011	25.52	-0.09	-0.050			
0.4231	27077.24	3.7090	3.7089	-1.2196	25.52	-0.09	-0.050			
0.4243	27155.44	3.7080	3.7084	-1.2392	25.52	-0.09	-0.050			
0.4255	27234.38	3.7070	3.7072	-1.2570	25.52	-0.09	-0.050			
0.4268	27315.12	3.7060	3.7061	-1.2783	25.51	-0.10	-0.050			
0.4281	27398.03	3.7050	3.7049	-1.2979	25.51	-0.10	-0.050			
0.4294	27483.05	3.7040	3.7040	-1.3177	25.50	-0.11	-0.050			
0.4308	27568.18	3.7030	3.7029	-1.3394	25.49	-0.12	-0.050			
0.4321	27654.41	3.7020	3.7017	-1.3583	25.48	-0.13	-0.050			
0.4335	27741.11	3.7010	3.7010	-1.3753	25.49	-0.12	-0.050			
0.4348	27828.54	3.7000	3.7000	-1.3995	25.49	-0.12	-0.050			
0.4362	27918.12	3.6990	3.6988	-1.4211	25.48	-0.13	-0.050			
0.4377	28010.28	3.6980	3.6980	-1.4395	25.48	-0.13	-0.050			
0.4391	28105.09	3.6970	3.6971	-1.4609	25.48	-0.13	-0.050			
0.4406	28199.70	3.6960	3.6962	-1.4831	25.47	-0.14	-0.050	0.245	0.585	
0.4421	28295.75	3.6950	3.6949	-1.5024	25.46	-0.15	-0.050			
0.4436	28391.44	3.6940	3.6941	-1.5220	25.47	-0.14	-0.050			
0.4451	28489.45	3.6930	3.6929	-1.5431	25.45	-0.16	-0.050			
0.4467	28588.85	3.6920	3.6923	-1.5634	25.46	-0.15	-0.050			
0.4483	28689.06	3.6910	3.6910	-1.5815	25.45	-0.16	-0.050			
0.4498	28790.28	3.6900	3.6901	-1.6035	25.45	-0.16	-0.050			
0.4515	28893.99	3.6890	3.6891	-1.6252	25.46	-0.15	-0.050			
0.4531	28998.53	3.6880	3.6880	-1.6447	25.46	-0.15	-0.050			
0.4548	29105.85	3.6870	3.6869	-1.6631	25.46	-0.15	-0.050			
0.4564	29212.40	3.6860	3.6862	-1.6864	25.46	-0.15	-0.050			
0.4581	29321.15	3.6850	3.6849	-1.7089	25.46	-0.15	-0.050			
0.4599	29431.20	3.6840	3.6838	-1.7272	25.46	-0.15	-0.050			
0.4616	29541.54	3.6830	3.6830	-1.7477	25.47	-0.14	-0.050			
0.4634	29654.56	3.6820	3.6821	-1.7668	25.47	-0.14	-0.050			
0.4651	29767.70	3.6810	3.6809	-1.7888	25.47	-0.14	-0.050			
0.4669	29882.89	3.6800	3.6800	-1.8088	25.47	-0.14	-0.050			
0.4688	30000.39	3.6790	3.6789	-1.8329	25.47	-0.14	-0.050			
0.4706	30119.60	3.6780	3.6780	-1.8552	25.46	-0.15	-0.050			
0.4725	30237.66	3.6770	3.6770	-1.8770	25.46	-0.15	-0.050			
0.4743	30358.40	3.6760	3.6761	-1.8930	25.46	-0.15	-0.050			
0.4763	30480.18	3.6750	3.6752	-1.9151	25.47	-0.14	-0.050			
0.4782	30601.75	3.6740	3.6741	-1.9366	25.46	-0.15	-0.050			
0.4801	30727.67	3.6730	3.6731	-1.9585	25.45	-0.16	-0.050			
0.4821	30853.22	3.6720	3.6722	-1.9839	25.45	-0.16	-0.050			
0.4841	30979.76	3.6710	3.6712	-2.0069	25.45	-0.16	-0.050			
0.4861	31109.38	3.6700	3.6700	-2.0296	25.44	-0.17	-0.050			
0.4881	31239.63	3.6690	3.6690	-2.0547	25.44	-0.17	-0.050			
0.4902	31371.06	3.6680	3.6679	-2.0820	25.44	-0.17	-0.050			
0.4923	31504.25	3.6670	3.6671	-2.1086	25.44	-0.17	-0.050			
0.4943	31638.24	3.6660	3.6659	-2.1325	25.43	-0.18	-0.050			
0.4965	31775.95	3.6650	3.6650	-2.1600	25.45	-0.16	-0.050			
0.4987	31915.72	3.6640	3.6639	-2.1871	25.44	-0.17	-0.050			
0.5009	32055.01	3.6630	3.6630	-2.2184	25.44	-0.17	-0.050			
0.5031	32196.53	3.6620	3.6622	-2.2510	25.44	-0.17	-0.050			
0.5053	32341.35	3.6610	3.6608	-2.2821	25.44	-0.17	-0.050			
0.5076	32488.99	3.6600	3.6600	-2.3127	25.43	-0.18	-0.050			
0.5100	32638.35	3.6590	3.6592	-2.3474	25.43	-0.18	-0.050			
0.5123	32788.31	3.6580	3.6582	-2.3781	25.44	-0.17	-0.050			
0.5147	32942.16	3.6570	3.6573	-2.4090	25.43	-0.18	-0.050			
0.5171	33097.50	3.6560	3.6560	-2.4461	25.44	-0.17	-0.050			
0.5196	33254.85	3.6550	3.6550	-2.4784	25.44	-0.17	-0.050	0.246	0.405	
0.5221	33413.22	3.6540	3.6540	-2.5143	25.45	-0.16	-0.050			
0.5246	33576.18	3.6530	3.6529	-2.5512	25.45	-0.16	-0.050			
0.5272	33740.60	3.6520	3.6520	-2.5787	25.46	-0.15	-0.050			
0.5298	33907.19	3.6510	3.6512	-2.6190	25.45	-0.16	-0.050			
0.5324	34073.72	3.6500	3.6500	-2.6606	25.45	-0.16	-0.050			
0.5351	34246.21	3.6490	3.6489	-2.6872	25.44	-0.17	-0.050			
0.5378	34420.78	3.6480	3.6481	-2.7179	25.43	-0.18	-0.050			
0.5406	34595.97	3.6470	3.6469	-2.7543	25.41	-0.20	-0.050	0.218	0.604	
0.5433	34772.49	3.6460	3.6460	-2.7940	25.40	-0.21	-0.050			
0.5462	34953.82	3.6450	3.6451	-2.8186	25.38	-0.23	-0.050			
0.5490	35134.42	3.6440	3.6441	-2.8508	25.37	-0.24	-0.050			
0.5519	35318.99	3.6430	3.6430	-2.8850	25.36	-0.25	-0.050			
0.5548	35505.51	3.6420	3.6421	-2.9219	25.36	-0.25	-0.050			
0.5577	35692.68	3.6410	3.6411	-2.9557	25.36	-0.25	-0.050			
0.5607	35883.24	3.6400	3.6398	-2.9918	25.37	-0.24	-0.050	0.167	0.629	
0.5637	36074.28	3.6390	3.6393	-3.0327	25.38	-0.23	-0.050			
0.5667	36266.01	3.6380	3.6382	-3.0749	25.39	-0.22	-0.050			
0.5697	36463.51	3.6370	3.6371	-3.1198	25.42	-0.19	-0.050			
0.5729	36665.50	3.6360	3.6359	-3.1565	25.42	-0.19	-0.050			
0.5761	36870.02	3.6350	3.6350	-3.1892	25.44	-0.17	-0.050			
0.5793	37075.11	3.6340	3.6342	-3.2170	25.45	-0.16	-0.050			
0.5826	37287.95	3.6330	3.6329	-3.2571	25.46	-0.15	-0.050			
0.5859	37498.58	3.6320	3.6317	-3.2763	25.47	-0.14	-0.050			
0.5892	37710.17	3.6310	3.6310	-3.2945	25.48	-0.13	-0.050			
0.5926	37925.32	3.6300	3.6302	-3.3205	25.49	-0.12	-0.050			
0.5959	38140.25	3.6290	3.6290	-3.3353	25.48	-0.13	-0.050			
0.5993	38352.27	3.6280	3.6277	-3.3474	25.47	-0.14	-0.050	0.471	0.563	
0.6026	38565.97	3.6270	3.6271	-3.3500	25.45	-0.16	-0.050			
0.6060	38781.23	3.6260	3.6260	-3.3628	25.43	-0.18	-0.050			
0.6093	38994.09	3.6250	3.6249	-3.3634	25.39	-0.22	-0.050			
0.6127	39212.22	3.6240	3.6240	-3.3714	25.37	-0.24	-0.050			
0.6160	39426.76	3.6230	3.6231	-3.3760	25.34	-0.27	-0.050			
0.6195	39648.16	3.6220	3.6220	-3.3803	25.34	-0.27	-0.050	0.388	0.624	
0.6229	39866.43	3.6210	3.6209	-3.3710	25.34	-0.27	-0.050			
0.6263	40085.67	3.6200	3.6199	-3.3517	25.34	-0.27	-0.050			
0.6298	40304.38	3.6190	3.6189	-3.3275	25.35	-0.26	-0.050			
0.6331	40519.62	3.6180	3.6180	-3.2948	25.38	-0.23	-0.050			
0.6364	40731.93	3.6170	3.6170	-3.2538	25.40	-0.21	-0.050			
0.6397	40941.55	3.6160	3.6162	-3.2051	25.41	-0.20	-0.050			
0.6429	41148.42	3.6150	3.6150	-3.1454	25.44	-0.17	-0.050			
0.6461	41351.36	3.6140	3.6140	-3.0804	25.45	-0.16	-0.050			
0.6492	41549.43	3.6130	3.6129	-3.0058	25.47	-0.14	-0.050			
0.6522	41738.51	3.6120	3.6121	-2.9239	25.48	-0.13	-0.050			
0.6551	41924.14	3.6110	3.6109	-2.8526	25.48	-0.13	-0.050			
0.6579	42104.17	3.6100	3.6099	-2.7774	25.49	-0.12	-0.050			
0.6606	42277.85	3.6090	3.6088	-2.6986	25.49	-0.12	-0.050	0.612	0.607	
0.6632	42446.53	3.6080	3.6083	-2.6207	25.49	-0.12	-0.050			
0.6658	42609.90	3.6070	3.6071	-2.5473	25.48	-0.13	-0.050			
0.6683	42771.75	3.6060	3.6059	-2.4712	25.47	-0.14	-0.050			
0.6707	42925.59	3.6050	3.6051	-2.4019	25.45	-0.16	-0.050			
0.6730	43072.98	3.6040	3.6040	-2.3418	25.44	-0.17	-0.050			
0.6753	43216.74	3.6030	3.6032	-2.2889	25.43	-0.18	-0.050			
0.6774	43355.23	3.6020	3.6019	-2.2348	25.42	-0.19	-0.050			
0.6795	43490.77	3.6010	3.6011	-2.1947	25.40	-0.21	-0.050			
0.6816	43624.22	3.6000	3.6000	-2.1590	25.40	-0.21	-0.050			
0.6837	43755.12	3.5990	3.5989	-2.1352	25.39	-0.22	-0.050			
0.6857	43885.18	3.5980	3.5980	-2.1166	25.39	-0.22	-0.050			
0.6878	44016.04	3.5970	3.5971	-2.1015	25.39	-0.22	-0.050			
0.6898	44146.67	3.5960	3.5956	-2.0890	25.39	-0.22	-0.050			
0.6918	44276.29	3.5950	3.5949	-2.0807	25.39	-0.22	-0.050			
0.6939	44407.00	3.5940	3.5940	-2.0753	25.41	-0.20	-0.050			
0.6959	44539.14	3.5930	3.5929	-2.0709	25.42	-0.19	-0.050			
0.6980	44672.25	3.5920	3.5918	-2.0711	25.44	-0.17	-0.050			
0.7001	44805.58	3.5910	3.5910	-2.0718	25.46	-0.15	-0.050	0.389	0.541	
0.7022	44941.03	3.5900	3.5899	-2.0753	25.48	-0.13	-0.050			
0.7043	45076.32	3.5890	3.5890	-2.0695	25.51	-0.10	-0.050			
0.7064	45212.45	3.5880	3.5880	-2.0637	25.52	-0.09	-0.050			
0.7085	45347.03	3.5870	3.5869	-2.0520	25.54	-0.07	-0.050			
0.7106	45480.50	3.5860	3.5858	-2.0362	25.56	-0.05	-0.050			
0.7127	45612.09	3.5850	3.5851	-2.0164	25.57	-0.04	-0.050			
0.7147	45741.82	3.5840	3.5840	-1.9968	25.58	-0.03	-0.050			
0.7167	45871.23	3.5830	3.5833	-1.9718	25.58	-0.03	-0.050			
0.7187	45998.97	3.5820	3.5819	-1.9475	25.59	-0.02	-0.050			
0.7207	46123.21	3.5810	3.5812	-1.9201	25.59	-0.02	-0.050			
0.7226	46244.62	3.5800	3.5800	-1.8890	25.59	-0.02	-0.050			
0.7244	46364.47	3.5790	3.5790	-1.8643	25.59	-0.02	-0.050			
0.7263	46483.59	3.5780	3.5780	-1.8389	25.60	-0.01	-0.050			
0.7281	46598.32	3.5770	3.5772	-1.8105	25.61	-0.00	-0.050			
0.7299	46712.83	3.5760	3.5762	-1.7846	25.59	-0.02	-0.050			
0.7316	46823.61	3.5750	3.5750	-1.7658	25.59	-0.02	-0.050			
0.7334	46934.50	3.5740	3.5741	-1.7451	25.59	-0.02	-0.050			
0.7351	47043.48	3.5730	3.5729	-1.7203	25.58	-0.03	-0.050			
0.7367	47151.56	3.5720	3.5719	-1.7040	25.57	-0.04	-0.050			
0.7384	47256.94	3.5710	3.5710	-1.6937	25.56	-0.05	-0.050			
0.7400	47362.73	3.5700	3.5700	-1.6885	25.56	-0.05	-0.050	0.164	0.488	
0.7417	47470.04	3.5690	3.5689	-1.6807	25.55	-0.06	-0.050			
0.7434	47574.79	3.5680	3.5681	-1.6737	25.54	-0.07	-0.050			
0.7450	47680.33	3.5670	3.5672	-1.6696	25.52	-0.09	-0.050			
0.7466	47785.16	3.5660	3.5660	-1.6697	25.52	-0.09	-0.050			
0.7483	47890.38	3.5650	3.5652	-1.6729	25.49	-0.12	-0.050			
0.7499	47996.30	3.5640	3.5638	-1.6816	25.49	-0.12	-0.050			
0.7516	48104.95	3.5630	3.5629	-1.6835	25.48	-0.13	-0.050			
0.7533	48213.07	3.5620	3.5618	-1.6857	25.48	-0.13	-0.050			
0.7550	48320.89	3.5610	3.5611	-1.6916	25.48	-0.13	-0.050			
0.7567	48430.30	3.5600	3.5601	-1.6931	25.48	-0.13	-0.050			
0.7584	48540.30	3.5590	3.5589	-1.6927	25.49	-0.12	-0.050			
0.7602	48650.94	3.5580	3.5580	-1.6909	25.49	-0.12	-0.050	0.207	0.472	
0.7619	48760.66	3.5570	3.5570	-1.6838	25.51	-0.10	-0.050			
0.7636	48871.17	3.5560	3.5559	-1.6770	25.53	-0.08	-0.050			
0.7653	48980.55	3.5550	3.5551	-1.6727	25.55	-0.06	-0.050			
0.7670	49089.95	3.5540	3.5544	-1.6619	25.55	-0.06	-0.050			
0.7687	49198.58	3.5530	3.5530	-1.6437	25.57	-0.04	-0.050			
0.7704	49304.90	3.5520	3.5520	-1.6211	25.59	-0.02	-0.050			
0.7720	49409.66	3.5510	3.5512	-1.5947	25.60	-0.01	-0.050			
0.7737	49514.17	3.5500	3.5500	-1.5717	25.60	-0.01	-0.050			
0.7753	49616.86	3.5490	3.5491	-1.5416	25.62	0.01	-0.050			
0.7768	49714.84	3.5480	3.5481	-1.5086	25.61	0.00	-0.050			
0.7783	49809.59	3.5470	3.5470	-1.4708	25.63	0.02	-0.050			
0.7797	49903.77	3.5460	3.5459	-1.4353	25.63	0.02	-0.050			
0.7812	49996.15	3.5450	3.5452	-1.3984	25.63	0.02	-0.050			
0.7826	50084.45	3.5440	3.5442	-1.3639	25.63	0.02	-0.050			
0.7839	50171.38	3.5430	3.5429	-1.3328	25.63	0.02	-0.050			
0.7852	50255.01	3.5420	3.5421	-1.2941	25.62	0.01	-0.050			
0.7865	50336.59	3.5410	3.5410	-1.2582	25.62	0.01	-0.050			
0.7877	50415.07	3.5400	3.5401	-1.2269	25.62	0.01	-0.050			
0.7889	50491.13	3.5390	3.5387	-1.1957	25.61	0.00	-0.050			
0.7901	50564.65	3.5380	3.5380	-1.1601	25.61	-0.00	-0.050			
0.7912	50637.34	3.5370	3.5370	-1.1291	25.60	-0.01	-0.050			
0.7923	50706.27	3.5360	3.5360	-1.1013	25.59	-0.02	-0.050			
0.7933	50773.02	3.5350	3.5348	-1.0767	25.60	-0.01	-0.050			
0.7944	50839.39	3.5340	3.5340	-1.0597	25.59	-0.02	-0.050			
0.7954	50905.39	3.5330	3.5330	-1.0415	25.58	-0.03	-0.050			
0.7964	50969.71	3.5320	3.5321	-1.0229	25.57	-0.04	-0.050			
0.7974	51031.95	3.5310	3.5310	-1.0119	25.58	-0.03	-0.050			
0.7983	51094.01	3.5300	3.5299	-0.9997	25.57	-0.04	-0.050			
0.7993	51154.99	3.5290	3.5291	-0.9943	25.57	-0.04	-0.050			
0.8002	51215.99	3.5280	3.5279	-0.9865	25.56	-0.05	-0.050	0.405	0.510	
0.8012	51277.70	3.5270	3.5267	-0.9843	25.56	-0.05	-0.050			
0.8022	51340.04	3.5260	3.5258	-0.9822	25.55	-0.06	-0.050			
0.8032	51402.37	3.5250	3.5249	-0.9839	25.56	-0.05	-0.050			
0.8041	51461.99	3.5240	3.5241	-0.9855	25.55	-0.06	-0.050			
0.8051	51524.42	3.5230	3.5230	-0.9896	25.54	-0.07	-0.050			
0.8061	51589.32	3.5220	3.5219	-0.9918	25.54	-0.07	-0.050			
0.8071	51653.86	3.5210	3.5212	-0.9962	25.53	-0.08	-0.050			
0.8081	51718.07	3.5200	3.5198	-0.9963	25.53	-0.08	-0.050			
0.8091	51783.15	3.5190	3.5191	-1.0013	25.53	-0.08	-0.050			
0.8102	51849.67	3.5180	3.5180	-0.9981	25.51	-0.10	-0.050			
0.8112	51914.88	3.5170	3.5172	-0.9984	25.52	-0.09	-0.050			
0.8122	51979.29	3.5160	3.5157	-0.9945	25.52	-0.09	-0.050			
0.8132	52044.33	3.5150	3.5150	-0.9890	25.51	-0.10	-0.050			
0.8142	52108.41	3.5140	3.5142	-0.9836	25.51	-0.10	-0.050			
0.8152	52172.95	3.5130	3.5133	-0.9765	25.51	-0.10	-0.050			
0.8162	52236.56	3.5120	3.5119	-0.9641	25.51	-0.10	-0.050			
0.8172	52299.04	3.5110	3.5109	-0.9524	25.50	-0.11	-0.050			
0.8182	52361.60	3.5100	3.5099	-0.9403	25.51	-0.10	-0.050			
0.8191	52420.82	3.5090	3.5091	-0.9250	25.52	-0.09	-0.050			
0.8200	52479.79	3.5080	3.5078	-0.9125	25.51	-0.10	-0.050			
0.8209	52538.18	3.5070	3.5069	-0.8984	25.52	-0.09	-0.050	0.191	0.550	
0.8218	52594.49	3.5060	3.5061	-0.8877	25.51	-0.10	-0.050			
0.8226	52648.68	3.5050	3.5049	-0.8736	25.51	-0.10	-0.050			
0.8235	52701.32	3.5040	3.5042	-0.8649	25.52	-0.09	-0.050			
0.8243	52755.43	3.5030	3.5032	-0.8592	25.51	-0.10	-0.050			
0.8252	52810.60	3.5020	3.5019	-0.8536	25.52	-0.09	-0.050			
0.8260	52862.80	3.5010	3.5011	-0.8515	25.52	-0.09	-0.050			
0.8268	52912.79	3.5000	3.4999	-0.8533	25.53	-0.08	-0.050			
0.8276	52964.16	3.4990	3.4988	-0.8626	25.54	-0.07	-0.050			
0.8283	53014.29	3.4980	3.4982	-0.8734	25.53	-0.08	-0.050			
0.8291	53065.55	3.4970	3.4971	-0.8967	25.53	-0.08	-0.050			
0.8299	53114.53	3.4960	3.4962	-0.9266	25.54	-0.07	-0.050			
0.8307	53167.66	3.4950	3.4952	-0.9697	25.54	-0.07	-0.050			
0.8316	53221.52	3.4940	3.4943	-1.0115	25.55	-0.06	-0.050			
0.8325	53281.20	3.4930	3.4933	-1.0701	25.55	-0.06	-0.050			
0.8335	53341.92	3.4920	3.4919	-1.1442	25.56	-0.05	-0.050			
0.8344	53404.48	3.4910	3.4911	-1.2181	25.56	-0.05	-0.050			
0.8356	53477.79	3.4900	3.4901	-1.3119	25.56	-0.05	-0.050			
0.8368	53557.73	3.4890	3.4890	-1.4169	25.57	-0.04	-0.050			
0.8382	53647.83	3.4880	3.4879	-1.5274	25.57	-0.04	-0.050			
0.8398	53747.75	3.4870	3.4869	-1.6412	25.59	-0.02	-0.050			
0.8415	53855.11	3.4860	3.4859	-1.7503	25.59	-0.02	-0.050	0.552	0.584	
0.8434	53975.41	3.4850	3.4846	-1.8625	25.60	-0.01	-0.050			
0.8453	54101.71	3.4840	3.4837	-1.9782	25.60	-0.01	-0.050			
0.8475	54240.11	3.4830	3.4827	-2.0813	25.60	-0.01	-0.050			
0.8498	54384.84	3.4820	3.4820	-2.1758	25.60	-0.01	-0.050			
0.8521	54536.80	3.4810	3.4811	-2.2645	25.59	-0.02	-0.050			
0.8546	54692.35	3.4800	3.4799	-2.3444	25.57	-0.04	-0.050			
0.8571	54855.87	3.4790	3.4790	-2.4057	25.57	-0.04	-0.050			
0.8597	55020.68	3.4780	3.4779	-2.4508	25.55	-0.06	-0.050			
0.8623	55186.99	3.4770	3.4770	-2.4781	25.53	-0.08	-0.050			
0.8650	55359.10	3.4760	3.4760	-2.5003	25.53	-0.08	-0.050			
0.8676	55528.65	3.4750	3.4752	-2.5048	25.51	-0.10	-0.050			
0.8703	55696.85	3.4740	3.4740	-2.4932	25.48	-0.13	-0.050			
0.8728	55859.84	3.4730	3.4728	-2.4676	25.47	-0.14	-0.050			
0.8753	56019.91	3.4720	3.4722	-2.4370	25.48	-0.13	-0.050			
0.8778	56178.76	3.4710	3.4712	-2.3959	25.48	-0.13	-0.050			
0.8802	56334.85	3.4700	3.4704	-2.3508	25.48	-0.13	-0.050	0.461	0.571	
0.8826	56485.91	3.4690	3.4689	-2.2994	25.50	-0.11	-0.050			
0.8849	56634.59	3.4680	3.4681	-2.2410	25.52	-0.09	-0.050			
0.8872	56779.08	3.4670	3.4670	-2.1798	25.53	-0.08	-0.050			
0.8893	56918.26	3.4660	3.4659	-2.1185	25.54	-0.07	-0.050			
0.8914	57052.46	3.4650	3.4650	-2.0512	25.56	-0.05	-0.050			
0.8935	57184.58	3.4640	3.4640	-1.9841	25.55	-0.06	-0.050			
0.8955	57309.80	3.4630	3.4632	-1.9149	25.57	-0.04	-0.050			
0.8973	57430.35	3.4620	3.4623	-1.8427	25.58	-0.03	-0.050			
0.8992	57546.63	3.4610	3.4610	-1.7708	25.57	-0.04	-0.050			
0.9009	57658.37	3.4600	3.4600	-1.6981	25.57	-0.04	-0.050			
0.9026	57766.21	3.4590	3.4589	-1.6251	25.59	-0.02	-0.050			
0.9042	57868.16	3.4580	3.4579	-1.5524	25.58	-0.03	-0.050			
0.9057	57965.69	3.4570	3.4571	-1.4788	25.59	-0.02	-0.050			
0.9071	58057.02	3.4560	3.4563	-1.4037	25.58	-0.03	-0.050			
0.9085	58143.63	3.4550	3.4550	-1.3305	25.59	-0.02	-0.050			
0.9098	58224.55	3.4540	3.4538	-1.2582	25.58	-0.03	-0.050			
0.9109	58299.63	3.4530	3.4531	-1.1855	25.60	-0.01	-0.050			
0.9121	58373.08	3.4520	3.4518	-1.1223	25.59	-0.02	-0.050			
0.9132	58442.23	3.4510	3.4510	-1.0653	25.59	-0.02	-0.050			
0.9142	58507.76	3.4500	3.4502	-1.0005	25.59	-0.02	-0.050			
0.9151	58568.25	3.4490	3.4488	-0.9429	25.59	-0.02	-0.050			
0.9160	58625.02	3.4480	3.4479	-0.8896	25.59	-0.02	-0.050			
0.9168	58675.21	3.4470	3.4469	-0.8351	25.59	-0.02	-0.050			
0.9175	58722.46	3.4460	3.4462	-0.7845	25.58	-0.03	-0.050			
0.9183	58770.56	3.4450	3.4450	-0.7380	25.59	-0.02	-0.050			
0.9190	58813.56	3.4440	3.4440	-0.6980	25.58	-0.03	-0.050			
0.9196	58852.92	3.4430	3.4428	-0.6578	25.58	-0.03	-0.050			
0.9202	58892.83	3.4420	3.4419	-0.6206	25.58	-0.03	-0.050			
0.9208	58928.82	3.4410	3.4408	-0.5895	25.58	-0.03	-0.050	0.583	0.744	
0.9213	58963.92	3.4400	3.4399	-0.5561	25.58	-0.03	-0.050			
0.9218	58997.15	3.4390	3.4391	-0.5321	25.58	-0.03	-0.050			
0.9223	59028.08	3.4380	3.4381	-0.5014	25.57	-0.04	-0.050			
0.9228	59057.59	3.4370	3.4370	-0.4804	25.56	-0.05	-0.050			
0.9232	59086.94	3.4360	3.4361	-0.4575	25.56	-0.05	-0.050			
0.9237	59113.67	3.4350	3.4348	-0.4405	25.57	-0.04	-0.050			
0.9241	59140.37	3.4340	3.4339	-0.4207	25.58	-0.03	-0.050			
0.9245	59164.88	3.4330	3.4331	-0.4068	25.57	-0.04	-0.050			
0.9248	59189.67	3.4320	3.4319	-0.3905	25.57	-0.04	-0.050			
0.9252	59211.38	3.4310	3.4309	-0.3767	25.57	-0.04	-0.050			
0.9255	59235.12	3.4300	3.4300	-0.3652	25.56	-0.05	-0.050			
0.9259	59256.72	3.4290	3.4289	-0.3554	25.56	-0.05	-0.050			
0.9262	59278.16	3.4280	3.4281	-0.3438	25.55	-0.06	-0.050			
0.9265	59298.68	3.4270	3.4269	-0.3350	25.55	-0.06	-0.050			
0.9269	59319.41	3.4260	3.4259	-0.3264	25.55	-0.06	-0.050			
0.9272	59339.32	3.4250	3.4250	-0.3219	25.55	-0.06	-0.050			
0.9275	59359.43	3.4240	3.4241	-0.3152	25.55	-0.06	-0.050			
0.9278	59378.18	3.4230	3.4230	-0.3086	25.54	-0.07	-0.050			
0.9281	59397.79	3.4220	3.4220	-0.3041	25.54	-0.07	-0.050			
0.9284	59416.77	3.4210	3.4210	-0.2990	25.54	-0.07	-0.050			
0.9287	59435.53	3.4200	3.4200	-0.2958	25.55	-0.06	-0.050			
0.9290	59453.88	3.4190	3.4191	-0.2911	25.55	-0.06	-0.050			
0.9293	59472.25	3.4180	3.4179	-0.2882	25.55	-0.06	-0.050			
0.9295	59490.31	3.4170	3.4170	-0.2844	25.54	-0.07	-0.050			
0.9298	59508.42	3.4160	3.4156	-0.2814	25.54	-0.07	-0.050			
0.9301	59525.81	3.4150	3.4150	-0.2793	25.54	-0.07	-0.050			
0.9304	59543.61	3.4140	3.4141	-0.2769	25.53	-0.08	-0.050			
0.9306	59560.46	3.4130	3.4132	-0.2753	25.53	-0.08	-0.050			
0.9309	59578.04	3.4120	3.4121	-0.2738	25.53	-0.08	-0.050			
0.9312	59595.68	3.4110	3.4109	-0.2709	25.54	-0.07	-0.050			
0.9315	59612.96	3.4100	3.4101	-0.2692	25.54	-0.07	-0.050			
0.9317	59630.09	3.4090	3.4091	-0.2674	25.54	-0.07	-0.050			
0.9320	59647.34	3.4080	3.4079	-0.2650	25.53	-0.08	-0.050			
0.9323	59664.53	3.4070	3.4069	-0.2638	25.53	-0.08	-0.050			
0.9325	59681.34	3.4060	3.4060	-0.2616	25.53	-0.08	-0.050			
0.9328	59697.93	3.4050	3.4048	-0.2601	25.53	-0.08	-0.050			
0.9330	59714.52	3.4040	3.4039	-0.2581	25.53	-0.08	-0.050			
0.9333	59730.37	3.4030	3.4032	-0.2559	25.53	-0.08	-0.050			
0.9335	59746.70	3.4020	3.4021	-0.2545	25.53	-0.08	-0.050			
0.9338	59762.95	3.4010	3.4013	-0.2531	25.53	-0.08	-0.050			
0.9340	59779.07	3.4000	3.4002	-0.2529	25.53	-0.08	-0.050			
0.9343	59795.22	3.3990	3.3989	-0.2517	25.53	-0.08	-0.050			
0.9346	59811.58	3.3980	3.3979	-0.2496	25.52	-0.09	-0.050			
0.9348	59827.51	3.3970	3.3969	-0.2480	25.52	-0.09	-0.050			
0.9351	59843.33	3.3960	3.3959	-0.2464	25.52	-0.09	-0.050			
0.9353	59858.98	3.3950	3.3948	-0.2448	25.52	-0.09	-0.050			
0.9355	59874.60	3.3940	3.3938	-0.2433	25.52	-0.09	-0.050			
0.9358	59889.76	3.3930	3.3931	-0.2412	25.52	-0.09	-0.050			
0.9360	59905.28	3.3920	3.3921	-0.2396	25.52	-0.09	-0.050			
0.9363	59920.43	3.3910	3.3910	-0.2379	25.53	-0.08	-0.050			
0.9365	59935.65	3.3900	3.3901	-0.2366	25.53	-0.08	-0.050			
0.9367	59950.76	3.3890	3.3892	-0.2354	25.53	-0.08	-0.050			
0.9370	59966.48	3.3880	3.3881	-0.2354	25.52	-0.09	-0.050			
0.9372	59981.38	3.3870	3.3872	-0.2338	25.52	-0.09	-0.050			
0.9374	59996.29	3.3860	3.3860	-0.2321	25.52	-0.09	-0.050			
0.9377	60011.16	3.3850	3.3847	-0.2305	25.52	-0.09	-0.050			
0.9379	60025.48	3.3840	3.3841	-0.2299	25.53	-0.08	-0.050			
0.9381	60039.84	3.3830	3.3829	-0.2278	25.53	-0.08	-0.050			
0.9383	60054.39	3.3820	3.3819	-0.2267	25.53	-0.08	-0.050			
0.9386	60068.56	3.3810	3.3809	-0.2268	25.53	-0.08	-0.050			
0.9388	60082.56	3.3800	3.3800	-0.2252	25.53	-0.08	-0.050			
0.9390	60096.96	3.3790	3.3791	-0.2249	25.53	-0.08	-0.050			
0.9392	60111.20	3.3780	3.3781	-0.2233	25.53	-0.08	-0.050			
0.9395	60125.48	3.3770	3.3771	-0.2230	25.53	-0.08	-0.050			
0.9397	60139.74	3.3760	3.3760	-0.2228	25.53	-0.08	-0.050			
0.9399	60154.52	3.3750	3.3750	-0.2221	25.53	-0.08	-0.050			
0.9401	60168.71	3.3740	3.3738	-0.2213	25.53	-0.08	-0.050			
0.9404	60182.85	3.3730	3.3730	-0.2205	25.53	-0.08	-0.050			
0.9406	60197.00	3.3720	3.3721	-0.2193	25.53	-0.08	-0.050			
0.9408	60211.00	3.3710	3.3711	-0.2184	25.53	-0.08	-0.050	0.297	0.630	
0.9410	60225.20	3.3700	3.3702	-0.2180	25.53	-0.08	-0.050			
0.9412	60239.04	3.3690	3.3691	-0.2171	25.54	-0.07	-0.050			
0.9415	60252.90	3.3680	3.3681	-0.2161	25.54	-0.07	-0.050			
0.9417	60266.83	3.3670	3.3671	-0.2153	25.54	-0.07	-0.050			
0.9419	60280.38	3.3660	3.3660	-0.2148	25.54	-0.07	-0.050			
0.9421	60294.10	3.3650	3.3650	-0.2139	25.54	-0.07	-0.050			
0.9423	60307.82	3.3640	3.3640	-0.2132	25.54	-0.07	-0.050			
0.9425	60321.43	3.3630	3.3630	-0.2123	25.54	-0.07	-0.050			
0.9427	60334.98	3.3620	3.3619	-0.2113	25.55	-0.06	-0.050			
0.9429	60348.12	3.3610	3.3609	-0.2098	25.55	-0.06	-0.050			
0.9431	60361.40	3.3600	3.3601	-0.2096	25.55	-0.06	-0.050			
0.9434	60374.80	3.3590	3.3589	-0.2091	25.55	-0.06	-0.050			
0.9436	60387.82	3.3580	3.3580	-0.2081	25.55	-0.06	-0.050			
0.9438	60401.46	3.3570	3.3570	-0.2067	25.56	-0.05	-0.050			
0.9440	60414.67	3.3560	3.3560	-0.2061	25.56	-0.05	-0.050			
0.9442	60428.10	3.3550	3.3553	-0.2059	25.56	-0.05	-0.050			
0.9444	60441.55	3.3540	3.3541	-0.2041	25.56	-0.05	-0.050			
0.9446	60454.58	3.3530	3.3527	-0.2029	25.56	-0.05	-0.050			
0.9448	60467.85	3.3520	3.3518	-0.2023	25.56	-0.05	-0.050			
0.9450	60480.47	3.3510	3.3511	-0.2018	25.56	-0.05	-0.050			
0.9452	60493.35	3.3500	3.3500	-0.2007	25.56	-0.05	-0.050			
0.9454	60506.27	3.3490	3.3492	-0.1998	25.56	-0.05	-0.050			
0.9456	60518.90	3.3480	3.3482	-0.1989	25.56	-0.05	-0.050			
0.9458	60531.59	3.3470	3.3469	-0.1979	25.56	-0.05	-0.050			
0.9460	60544.14	3.3460	3.3460	-0.1967	25.56	-0.05	-0.050			
0.9462	60556.69	3.3450	3.3451	-0.1956	25.57	-0.04	-0.050			
0.9464	60569.25	3.3440	3.3439	-0.1939	25.57	-0.04	-0.050			
0.9466	60581.62	3.3430	3.3428	-0.1928	25.57	-0.04	-0.050			
0.9468	60593.92	3.3420	3.3418	-0.1917	25.57	-0.04	-0.050			
0.9470	60606.07	3.3410	3.3408	-0.1909	25.58	-0.03	-0.050			
0.9472	60618.24	3.3400	3.3400	-0.1899	25.58	-0.03	-0.050			
0.9473	60630.36	3.3390	3.3391	-0.1889	25.58	-0.03	-0.050			
0.9475	60642.42	3.3380	3.3379	-0.1879	25.58	-0.03	-0.050			
0.9477	60653.98	3.3370	3.3372	-0.1872	25.58	-0.03	-0.050			
0.9479	60665.94	3.3360	3.3360	-0.1866	25.59	-0.02	-0.050			
0.9481	60677.87	3.3350	3.3352	-0.1861	25.59	-0.02	-0.050			
0.9483	60689.61	3.3340	3.3341	-0.1864	25.59	-0.02	-0.050			
0.9485	60701.53	3.3330	3.3329	-0.1860	25.59	-0.02	-0.050			
0.9486	60713.42	3.3320	3.3319	-0.1856	25.59	-0.02	-0.050			
0.9488	60725.23	3.3310	3.3309	-0.1850	25.59	-0.02	-0.050			
0.9490	60737.07	3.3300	3.3299	-0.1847	25.59	-0.02	-0.050			
0.9492	60748.87	3.3290	3.3288	-0.1843	25.59	-0.02	-0.050			
0.9494	60760.12	3.3280	3.3281	-0.1830	25.59	-0.02	-0.050			
0.9496	60772.33	3.3270	3.3270	-0.1819	25.59	-0.02	-0.050			
0.9497	60783.96	3.3260	3.3260	-0.1816	25.59	-0.02	-0.050			
0.9499	60795.57	3.3250	3.3250	-0.1812	25.59	-0.02	-0.050			
0.9501	60807.37	3.3240	3.3240	-0.1812	25.60	-0.01	-0.050			
0.9503	60818.74	3.3230	3.3231	-0.1814	25.60	-0.01	-0.050			
0.9505	60830.34	3.3220	3.3221	-0.1811	25.61	-0.00	-0.050			
0.9507	60842.31	3.3210	3.3212	-0.1815	25.61	0.00	-0.050			
0.9508	60854.17	3.3200	3.3200	-0.1802	25.61	0.00	-0.050			
0.9510	60865.68	3.3190	3.3192	-0.1793	25.61	0.00	-0.050			
0.9512	60877.12	3.3180	3.3180	-0.1784	25.61	0.00	-0.050			
0.9514	60888.64	3.3170	3.3169	-0.1777	25.61	0.00	-0.050			
0.9516	60900.03	3.3160	3.3159	-0.1766	25.61	0.00	-0.050			
0.9517	60911.30	3.3150	3.3149	-0.1756	25.61	0.00	-0.050			
0.9519	60922.52	3.3140	3.3138	-0.1746	25.62	0.01	-0.050			
0.9521	60933.65	3.3130	3.3128	-0.1735	25.62	0.01	-0.050			
0.9523	60944.56	3.3120	3.3120	-0.1731	25.62	0.01	-0.050			
0.9524	60955.46	3.3110	3.3112	-0.1719	25.62	0.01	-0.050			
0.9526	60966.44	3.3100	3.3102	-0.1712	25.62	0.01	-0.050			
0.9528	60977.12	3.3090	3.3092	-0.1712	25.62	0.01	-0.050			
0.9529	60988.06	3.3080	3.3081	-0.1707	25.62	0.01	-0.050			
0.9531	60998.93	3.3070	3.3070	-0.1702	25.62	0.01	-0.050			
0.9533	61009.81	3.3060	3.3059	-0.1697	25.62	0.01	-0.050			
0.9534	61020.54	3.3050	3.3049	-0.1696	25.62	0.01	-0.050			
0.9536	61031.39	3.3040	3.3039	-0.1693	25.63	0.02	-0.050			
0.9538	61042.12	3.3030	3.3030	-0.1688	25.63	0.02	-0.050			
0.9540	61052.91	3.3020	3.3019	-0.1685	25.63	0.02	-0.050			
0.9541	61064.07	3.3010	3.3008	-0.1668	25.63	0.02	-0.050			
0.9543	61074.39	3.3000	3.2999	-0.1654	25.63	0.02	-0.050			
0.9545	61084.97	3.2990	3.2990	-0.1650	25.64	0.03	-0.050			
0.9546	61095.51	3.2980	3.2981	-0.1646	25.64	0.03	-0.050			
0.9548	61106.18	3.2970	3.2971	-0.1636	25.64	0.03	-0.050			
0.9550	61117.18	3.2960	3.2961	-0.1642	25.64	0.03	-0.050			
0.9551	61127.66	3.2950	3.2950	-0.1633	25.64	0.03	-0.050			
0.9553	61138.08	3.2940	3.2940	-0.1623	25.64	0.03	-0.050			
0.9554	61148.32	3.2930	3.2931	-0.1619	25.64	0.03	-0.050			
0.9556	61158.87	3.2920	3.2922	-0.1615	25.64	0.03	-0.050			
0.9558	61169.17	3.2910	3.2911	-0.1605	25.64	0.03	-0.050			
0.9559	61179.41	3.2900	3.2899	-0.1595	25.64	0.03	-0.050			
0.9561	61189.06	3.2890	3.2887	-0.1594	25.64	0.03	-0.050			
0.9562	61199.24	3.2880	3.2879	-0.1589	25.64	0.03	-0.050			
0.9564	61209.40	3.2870	3.2870	-0.1585	25.64	0.03	-0.050			
0.9566	61219.53	3.2860	3.2860	-0.1580	25.64	0.03	-0.050			
0.9567	61229.37	3.2850	3.2849	-0.1564	25.64	0.03	-0.050			
0.9569	61239.37	3.2840	3.2839	-0.1561	25.64	0.03	-0.050			
0.9570	61249.35	3.2830	3.2830	-0.1558	25.64	0.03	-0.050			
0.9572	61259.31	3.2820	3.2821	-0.1555	25.64	0.03	-0.050			
0.9573	61269.46	3.2810	3.2810	-0.1541	25.64	0.03	-0.050			
0.9575	61279.31	3.2800	3.2799	-0.1536	25.64	0.03	-0.050			
0.9576	61289.13	3.2790	3.2790	-0.1531	25.64	0.03	-0.050			
0.9578	61298.92	3.2780	3.2780	-0.1527	25.64	0.03	-0.050			
0.9580	61308.93	3.2770	3.2770	-0.1535	25.64	0.03	-0.050			
0.9581	61318.73	3.2760	3.2762	-0.1529	25.64	0.03	-0.050			
0.9583	61328.50	3.2750	3.2752	-0.1522	25.64	0.03	-0.050			
0.9584	61338.22	3.2740	3.2741	-0.1516	25.64	0.03	-0.050			
0.9586	61347.61	3.2730	3.2730	-0.1513	25.64	0.03	-0.050			
0.9587	61357.28	3.2720	3.2721	-0.1509	25.65	0.04	-0.050			
0.9589	61366.92	3.2710	3.2710	-0.1505	25.65	0.04	-0.050			
0.9590	61376.54	3.2700	3.2700	-0.1501	25.65	0.04	-0.050			
0.9592	61385.90	3.2690	3.2690	-0.1493	25.65	0.04	-0.050			
0.9593	61395.53	3.2680	3.2679	-0.1489	25.65	0.04	-0.050			
0.9595	61405.05	3.2670	3.2668	-0.1486	25.65	0.04	-0.050			
0.9596	61414.54	3.2660	3.2658	-0.1482	25.65	0.04	-0.050			
0.9597	61423.62	3.2650	3.2650	-0.1474	25.65	0.04	-0.050			
0.9599	61433.48	3.2640	3.2641	-0.1465	25.65	0.04	-0.050			
0.9600	61442.84	3.2630	3.2631	-0.1461	25.65	0.04	-0.050			
0.9602	61452.18	3.2620	3.2619	-0.1457	25.65	0.04	-0.050			
0.9603	61461.88	3.2610	3.2609	-0.1459	25.65	0.04	-0.050			
0.9605	61471.30	3.2600	3.2600	-0.1450	25.65	0.04	-0.050			
0.9606	61480.55	3.2590	3.2590	-0.1443	25.65	0.04	-0.050			
0.9608	61489.76	3.2580	3.2581	-0.1435	25.65	0.04	-0.050	0.443	0.699	
0.9609	61499.36	3.2570	3.2570	-0.1436	25.65	0.04	-0.050			
0.9611	61508.51	3.2560	3.2561	-0.1425	25.65	0.04	-0.050			
0.9612	61517.11	3.2550	3.2552	-0.1428	25.65	0.04	-0.050			
0.9613	61526.23	3.2540	3.2541	-0.1421	25.65	0.04	-0.050			
0.9615	61534.98	3.2530	3.2529	-0.1407	25.65	0.04	-0.050			
0.9616	61543.97	3.2520	3.2520	-0.1403	25.65	0.04	-0.050			
0.9618	61552.91	3.2510	3.2510	-0.1400	25.65	0.04	-0.050			
0.9619	61561.86	3.2500	3.2500	-0.1397	25.65	0.04	-0.050			
0.9620	61570.79	3.2490	3.2490	-0.1393	25.65	0.04	-0.050			
0.9622	61579.36	3.2480	3.2480	-0.1384	25.65	0.04	-0.050			
0.9623	61588.21	3.2470	3.2470	-0.1383	25.65	0.04	-0.050			
0.9625	61597.43	3.2460	3.2458	-0.1372	25.65	0.04	-0.050			
0.9626	61606.20	3.2450	3.2448	-0.1367	25.65	0.04	-0.050			
0.9627	61615.01	3.2440	3.2439	-0.1365	25.65	0.04	-0.050			
0.9629	61623.73	3.2430	3.2431	-0.1360	25.65	0.04	-0.050			
0.9630	61632.42	3.2420	3.2421	-0.1355	25.65	0.04	-0.050			
0.9631	61641.12	3.2410	3.2411	-0.1348	25.65	0.04	-0.050			
0.9633	61650.02	3.2400	3.2401	-0.1350	25.65	0.04	-0.050			
0.9634	61658.63	3.2390	3.2390	-0.1342	25.65	0.04	-0.050			
0.9635	61667.20	3.2380	3.2378	-0.1334	25.65	0.04	-0.050			
0.9637	61675.45	3.2370	3.2370	-0.1333	25.65	0.04	-0.050			
0.9638	61683.96	3.2360	3.2361	-0.1328	25.65	0.04	-0.050			
0.9639	61692.50	3.2350	3.2353	-0.1324	25.65	0.04	-0.050			
0.9641	61700.95	3.2340	3.2339	-0.1318	25.65	0.04	-0.050			
0.9642	61709.36	3.2330	3.2327	-0.1311	25.65	0.04	-0.050			
0.9643	61717.74	3.2320	3.2319	-0.1305	25.65	0.04	-0.050			
0.9645	61725.43	3.2310	3.2311	-0.1296	25.65	0.04	-0.050			
0.9646	61733.72	3.2300	3.2301	-0.1295	25.65	0.04	-0.050			
0.9647	61742.01	3.2290	3.2288	-0.1294	25.65	0.04	-0.050			
0.9648	61750.29	3.2280	3.2281	-0.1294	25.65	0.04	-0.050			
0.9650	61758.57	3.2270	3.2271	-0.1293	25.65	0.04	-0.050			
0.9651	61767.10	3.2260	3.2260	-0.1281	25.65	0.04	-0.050			
0.9652	61775.29	3.2250	3.2250	-0.1278	25.65	0.04	-0.050			
0.9654	61783.46	3.2240	3.2240	-0.1275	25.65	0.04	-0.050			
0.9655	61791.61	3.2230	3.2231	-0.1272	25.65	0.04	-0.050			
0.9656	61799.74	3.2220	3.2220	-0.1269	25.65	0.04	-0.050			
0.9658	61808.06	3.2210	3.2210	-0.1273	25.65	0.04	-0.050			
0.9659	61816.20	3.2200	3.2200	-0.1268	25.65	0.04	-0.050			
0.9660	61824.30	3.2190	3.2192	-0.1264	25.65	0.04	-0.050			
0.9661	61832.38	3.2180	3.2181	-0.1260	25.64	0.03	-0.050			
0.9663	61840.33	3.2170	3.2168	-0.1258	25.64	0.03	-0.050			
0.9664	61848.37	3.2160	3.2160	-0.1255	25.64	0.03	-0.050			
0.9665	61856.39	3.2150	3.2152	-0.1251	25.64	0.03	-0.050			
0.9666	61864.38	3.2140	3.2139	-0.1247	25.64	0.03	-0.050			
0.9668	61872.35	3.2130	3.2128	-0.1244	25.64	0.03	-0.050			
0.9669	61880.30	3.2120	3.2118	-0.1240	25.64	0.03	-0.050			
0.9670	61888.27	3.2110	3.2109	-0.1230	25.65	0.04	-0.050			
0.9671	61896.14	3.2100	3.2100	-0.1226	25.65	0.04	-0.050			
0.9672	61903.97	3.2090	3.2090	-0.1222	25.65	0.04	-0.050			
0.9674	61911.77	3.2080	3.2081	-0.1217	25.65	0.04	-0.050			
0.9675	61919.55	3.2070	3.2072	-0.1213	25.65	0.04	-0.050			
0.9676	61927.07	3.2060	3.2060	-0.1210	25.65	0.04	-0.050			
0.9677	61934.81	3.2050	3.2048	-0.1207	25.64	0.03	-0.050			
0.9679	61942.52	3.2040	3.2040	-0.1205	25.64	0.03	-0.050			
0.9680	61950.23	3.2030	3.2031	-0.1202	25.64	0.03	-0.050			
0.9681	61957.91	3.2020	3.2021	-0.1199	25.64	0.03	-0.050			
0.9682	61965.99	3.2010	3.2011	-0.1199	25.64	0.03	-0.050			
0.9683	61973.65	3.2000	3.1998	-0.1194	25.64	0.03	-0.050			
0.9685	61981.27	3.1990	3.1989	-0.1188	25.64	0.03	-0.050			
0.9686	61988.86	3.1980	3.1980	-0.1183	25.64	0.03	-0.050			
0.9687	61996.22	3.1970	3.1971	-0.1175	25.64	0.03	-0.050			
0.9688	62003.82	3.1960	3.1959	-0.1169	25.64	0.03	-0.050			
0.9689	62011.29	3.1950	3.1947	-0.1165	25.64	0.03	-0.050			
0.9690	62018.73	3.1940	3.1940	-0.1160	25.64	0.03	-0.050			
0.9692	62026.13	3.1930	3.1931	-0.1155	25.64	0.03	-0.050			
0.9693	62033.51	3.1920	3.1920	-0.1151	25.64	0.03	-0.050			
0.9694	62040.87	3.1910	3.1909	-0.1146	25.64	0.03	-0.050			
0.9695	62048.19	3.1900	3.1901	-0.1141	25.65	0.04	-0.050			
0.9696	62055.32	3.1890	3.1893	-0.1141	25.65	0.04	-0.050			
0.9697	62062.62	3.1880	3.1881	-0.1138	25.65	0.04	-0.050			
0.9698	62069.89	3.1870	3.1871	-0.1135	25.65	0.04	-0.050			
0.9700	62077.25	3.1860	3.1859	-0.1133	25.65	0.04	-0.050			
0.9701	62084.49	3.1850	3.1849	-0.1129	25.65	0.04	-0.050			
0.9702	62091.71	3.1840	3.1840	-0.1125	25.65	0.04	-0.050			
0.9703	62098.87	3.1830	3.1829	-0.1122	25.65	0.04	-0.050			
0.9704	62106.04	3.1820	3.1818	-0.1118	25.65	0.04	-0.050			
0.9705	62112.86	3.1810	3.1809	-0.1108	25.65	0.04	-0.050			
0.9706	62119.94	3.1800	3.1800	-0.1106	25.65	0.04	-0.050			
0.9707	62127.02	3.1790	3.1789	-0.1104	25.65	0.04	-0.050			
0.9708	62134.23	3.1780	3.1781	-0.1099	25.65	0.04	-0.050			
0.9710	62141.25	3.1770	3.1770	-0.1096	25.65	0.04	-0.050			
0.9711	62148.39	3.1760	3.1759	-0.1097	25.64	0.03	-0.050			
0.9712	62155.40	3.1750	3.1751	-0.1093	25.64	0.03	-0.050			
0.9713	62162.38	3.1740	3.1742	-0.1089	25.64	0.03	-0.050			
0.9714	62169.32	3.1730	3.1730	-0.1086	25.64	0.03	-0.050			
0.9715	62176.25	3.1720	3.1721	-0.1082	25.64	0.03	-0.050			
0.9716	62183.16	3.1710	3.1710	-0.1078	25.64	0.03	-0.050			
0.9717	62190.05	3.1700	3.1700	-0.1075	25.64	0.03	-0.050			
0.9718	62197.04	3.1690	3.1691	-0.1073	25.64	0.03	-0.050			
0.9719	62203.90	3.1680	3.1681	-0.1068	25.64	0.03	-0.050			
0.9720	62210.72	3.1670	3.1669	-0.1064	25.64	0.03	-0.050			
0.9721	62217.48	3.1660	3.1659	-0.1061	25.64	0.03	-0.050			
0.9723	62224.26	3.1650	3.1650	-0.1057	25.64	0.03	-0.050			
0.9724	62231.00	3.1640	3.1641	-0.1052	25.64	0.03	-0.050			
0.9725	62237.57	3.1630	3.1629	-0.1046	25.64	0.03	-0.050			
0.9726	62244.25	3.1620	3.1618	-0.1042	25.64	0.03	-0.050			
0.9727	62250.91	3.1610	3.1608	-0.1039	25.64	0.03	-0.050			
0.9728	62257.55	3.1600	3.1600	-0.1036	25.65	0.04	-0.050			
0.9729	62264.17	3.1590	3.1592	-0.1033	25.65	0.04	-0.050			
0.9730	62270.80	3.1580	3.1581	-0.1030	25.65	0.04	-0.050			
0.9731	62277.38	3.1570	3.1570	-0.1026	25.65	0.04	-0.050			
0.9732	62283.94	3.1560	3.1560	-0.1023	25.65	0.04	-0.050			
0.9733	62290.48	3.1550	3.1549	-0.1020	25.65	0.04	-0.050			
0.9734	62296.87	3.1540	3.1540	-0.1020	25.65	0.04	-0.050			
0.9735	62303.34	3.1530	3.1531	-0.1016	25.65	0.04	-0.050			
0.9736	62309.83	3.1520	3.1521	-0.1013	25.65	0.04	-0.050			
0.9737	62316.31	3.1510	3.1509	-0.1011	25.65	0.04	-0.050			
0.9738	62322.77	3.1500	3.1499	-0.1009	25.65	0.04	-0.050			
0.9739	62329.22	3.1490	3.1489	-0.1006	25.65	0.04	-0.050			
0.9740	62335.63	3.1480	3.1481	-0.1005	25.65	0.04	-0.050			
0.9741	62342.06	3.1470	3.1469	-0.1003	25.65	0.04	-0.050			
0.9742	62348.36	3.1460	3.1459	-0.0998	25.65	0.04	-0.050			
0.9743	62354.75	3.1450	3.1450	-0.0997	25.65	0.04	-0.050			
0.9744	62361.12	3.1440	3.1441	-0.0995	25.65	0.04	-0.050			
0.9745	62367.48	3.1430	3.1431	-0.0994	25.66	0.05	-0.050			
0.9746	62373.84	3.1420	3.1420	-0.0992	25.66	0.05	-0.050			
0.9747	62380.40	3.1410	3.1409	-0.0981	25.66	0.05	-0.050			
0.9748	62386.87	3.1400	3.1402	-0.0983	25.66	0.05	-0.050			
0.9749	62393.15	3.1390	3.1391	-0.0979	25.66	0.05	-0.050			
0.9750	62399.40	3.1380	3.1379	-0.0974	25.66	0.05	-0.050			
0.9751	62405.62	3.1370	3.1369	-0.0970	25.65	0.04	-0.050			
0.9752	62411.81	3.1360	3.1359	-0.0965	25.65	0.04	-0.050			
0.9753	62417.97	3.1350	3.1350	-0.0961	25.65	0.04	-0.050			
0.9754	62424.29	3.1340	3.1341	-0.0960	25.65	0.04	-0.050			
0.9755	62430.42	3.1330	3.1331	-0.0954	25.64	0.03	-0.050			
0.9756	62436.51	3.1320	3.1320	-0.0949	25.64	0.03	-0.050			
0.9757	62442.57	3.1310	3.1310	-0.0943	25.64	0.03	-0.050			
0.9758	62448.58	3.1300	3.1300	-0.0937	25.64	0.03	-0.050			
0.9759	62454.56	3.1290	3.1290	-0.0932	25.64	0.03	-0.050			
0.9759	62459.93	3.1280	3.1280	-0.0933	25.64	0.03	-0.050			
0.9760	62465.90	3.1270	3.1269	-0.0931	25.64	0.03	-0.050			
0.9761	62471.86	3.1260	3.1259	-0.0930	25.65	0.04	-0.050			
0.9762	62477.80	3.1250	3.1249	-0.0928	25.65	0.04	-0.050			
0.9763	62483.73	3.1240	3.1239	-0.0926	25.65	0.04	-0.050			
0.9764	62489.65	3.1230	3.1230	-0.0924	25.65	0.04	-0.050			
0.9765	62495.71	3.1220	3.1223	-0.0917	25.65	0.04	-0.050			
0.9766	62501.43	3.1210	3.1210	-0.0910	25.65	0.04	-0.050			
0.9767	62507.25	3.1200	3.1199	-0.0908	25.65	0.04	-0.050			
0.9768	62513.05	3.1190	3.1190	-0.0906	25.65	0.04	-0.050			
0.9769	62518.85	3.1180	3.1179	-0.0904	25.65	0.04	-0.050			
0.9769	62524.63	3.1170	3.1168	-0.0902	25.65	0.04	-0.050			
0.9770	62530.40	3.1160	3.1159	-0.0900	25.65	0.04	-0.050			
0.9771	62536.16	3.1150	3.1152	-0.0899	25.65	0.04	-0.050			
0.9772	62542.17	3.1140	3.1142	-0.0900	25.65	0.04	-0.050			
0.9773	62547.92	3.1130	3.1132	-0.0896	25.65	0.04	-0.050			
0.9774	62553.64	3.1120	3.1121	-0.0892	25.65	0.04	-0.050			
0.9775	62559.34	3.1110	3.1111	-0.0889	25.65	0.04	-0.050			
0.9776	62565.02	3.1100	3.1101	-0.0885	25.65	0.04	-0.050			
0.9777	62570.67	3.1090	3.1090	-0.0882	25.65	0.04	-0.050			
0.9778	62576.59	3.1080	3.1078	-0.0880	25.66	0.05	-0.050			
0.9778	62581.87	3.1070	3.1068	-0.0880	25.66	0.05	-0.050			
0.9779	62587.50	3.1060	3.1058	-0.0877	25.66	0.05	-0.050			
0.9780	62593.10	3.1050	3.1049	-0.0874	25.66	0.05	-0.050			
0.9781	62598.68	3.1040	3.1041	-0.0871	25.66	0.05	-0.050			
0.9782	62604.25	3.1030	3.1031	-0.0868	25.66	0.05	-0.050			
0.9783	62609.31	3.1020	3.1020	-0.0858	25.66	0.05	-0.050			
0.9784	62614.81	3.1010	3.1009	-0.0858	25.66	0.05	-0.050			
0.9784	62620.57	3.1000	3.0998	-0.0853	25.66	0.05	-0.050			
0.9785	62626.02	3.0990	3.0990	-0.0851	25.66	0.05	-0.050			
0.9786	62631.46	3.0980	3.0981	-0.0849	25.65	0.04	-0.050			
0.9787	62636.89	3.0970	3.0971	-0.0848	25.65	0.04	-0.050			
0.9788	62642.31	3.0960	3.0960	-0.0846	25.65	0.04	-0.050			
0.9789	62647.72	3.0950	3.0950	-0.0844	25.65	0.04	-0.050			
0.9790	62653.39	3.0940	3.0941	-0.0845	25.65	0.04	-0.050			
0.9790	62658.58	3.0930	3.0931	-0.0843	25.65	0.04	-0.050			
0.9791	62663.98	3.0920	3.0921	-0.0841	25.65	0.04	-0.050			
0.9792	62669.35	3.0910	3.0911	-0.0839	25.65	0.04	-0.050			
0.9793	62674.71	3.0900	3.0900	-0.0837	25.65	0.04	-0.050			
0.9794	62680.06	3.0890	3.0890	-0.0834	25.65	0.04	-0.050			
0.9795	62685.39	3.0880	3.0880	-0.0832	25.65	0.04	-0.050			
0.9795	62690.65	3.0870	3.0870	-0.0829	25.65	0.04	-0.050			
0.9796	62695.95	3.0860	3.0861	-0.0827	25.65	0.04	-0.050			
0.9797	62701.24	3.0850	3.0850	-0.0825	25.65	0.04	-0.050			
0.9798	62706.51	3.0840	3.0840	-0.0823	25.65	0.04	-0.050			
0.9799	62711.77	3.0830	3.0830	-0.0821	25.65	0.04	-0.050			
0.9800	62717.03	3.0820	3.0817	-0.0815	25.65	0.04	-0.050			
0.9800	62722.24	3.0810	3.0808	-0.0813	25.65	0.04	-0.050			
0.9801	62727.50	3.0800	3.0798	-0.0809	25.65	0.04	-0.050			
0.9802	62732.66	3.0790	3.0788	-0.0806	25.65	0.04	-0.050			
0.9803	62737.81	3.0780	3.0779	-0.0803	25.66	0.05	-0.050			
0.9804	62742.94	3.0770	3.0769	-0.0800	25.66	0.05	-0.050			
0.9804	62748.06	3.0760	3.0759	-0.0798	25.66	0.05	-0.050			
0.9805	62753.15	3.0750	3.0749	-0.0795	25.66	0.05	-0.050			
0.9806	62758.23	3.0740	3.0739	-0.0792	25.66	0.05	-0.050			
0.9807	62763.44	3.0730	3.0730	-0.0793	25.66	0.05	-0.050			
0.9808	62768.50	3.0720	3.0722	-0.0789	25.66	0.05	-0.050	0.160	0.592	
0.9808	62773.54	3.0710	3.0710	-0.0785	25.66	0.05	-0.050			
0.9809	62778.47	3.0700	3.0699	-0.0784	25.66	0.05	-0.050			
0.9810	62783.48	3.0690	3.0688	-0.0781	25.66	0.05	-0.050			
0.9811	62788.46	3.0680	3.0678	-0.0777	25.66	0.05	-0.050			
0.9811	62793.43	3.0670	3.0668	-0.0774	25.66	0.05	-0.050			
0.9812	62798.37	3.0660	3.0658	-0.0771	25.66	0.05	-0.050			
0.9813	62803.29	3.0650	3.0648	-0.0768	25.66	0.05	-0.050			
0.9814	62808.20	3.0640	3.0639	-0.0765	25.66	0.05	-0.050			
0.9815	62813.08	3.0630	3.0631	-0.0762	25.66	0.05	-0.050			
0.9815	62817.50	3.0620	3.0621	-0.0759	25.66	0.05	-0.050			
0.9816	62822.36	3.0610	3.0609	-0.0758	25.66	0.05	-0.050			
0.9817	62827.22	3.0600	3.0600	-0.0759	25.66	0.05	-0.050			
0.9818	62832.08	3.0590	3.0590	-0.0758	25.66	0.05	-0.050			
0.9818	62836.92	3.0580	3.0580	-0.0757	25.66	0.05	-0.050			
0.9819	62841.76	3.0570	3.0569	-0.0756	25.66	0.05	-0.050			
0.9820	62846.60	3.0560	3.0560	-0.0754	25.66	0.05	-0.050			
0.9821	62851.42	3.0550	3.0550	-0.0753	25.66	0.05	-0.050			
0.9821	62856.28	3.0540	3.0539	-0.0751	25.66	0.05	-0.050			
0.9822	62861.08	3.0530	3.0528	-0.0749	25.66	0.05	-0.050			
0.9823	62865.87	3.0520	3.0520	-0.0748	25.66	0.05	-0.050			
0.9824	62870.65	3.0510	3.0510	-0.0747	25.66	0.05	-0.050			
0.9824	62875.37	3.0500	3.0499	-0.0745	25.66	0.05	-0.050			
0.9825	62880.13	3.0490	3.0489	-0.0743	25.66	0.05	-0.050			
0.9826	62884.89	3.0480	3.0480	-0.0742	25.66	0.05	-0.050			
0.9827	62889.75	3.0470	3.0470	-0.0739	25.66	0.05	-0.050			
0.9827	62894.47	3.0460	3.0461	-0.0737	25.66	0.05	-0.050			
0.9828	62899.18	3.0450	3.0451	-0.0735	25.66	0.05	-0.050			
0.9829	62903.88	3.0440	3.0441	-0.0734	25.66	0.05	-0.050			
0.9829	62908.57	3.0430	3.0431	-0.0732	25.66	0.05	-0.050			
0.9830	62913.44	3.0420	3.0420	-0.0733	25.66	0.05	-0.050			
0.9831	62918.12	3.0410	3.0411	-0.0730	25.66	0.05	-0.050			
0.9832	62922.79	3.0400	3.0402	-0.0727	25.66	0.05	-0.050			
0.9832	62927.44	3.0390	3.0391	-0.0724	25.66	0.05	-0.050			
0.9833	62932.06	3.0380	3.0380	-0.0721	25.66	0.05	-0.050			
0.9834	62936.67	3.0370	3.0369	-0.0718	25.66	0.05	-0.050			
0.9835	62941.26	3.0360	3.0359	-0.0716	25.66	0.05	-0.050			
0.9835	62945.83	3.0350	3.0348	-0.0713	25.66	0.05	-0.050			
0.9836	62950.36	3.0340	3.0339	-0.0710	25.67	0.06	-0.050			
0.9837	62954.89	3.0330	3.0330	-0.0707	25.67	0.06	-0.050			
0.9837	62959.40	3.0320	3.0320	-0.0704	25.67	0.06	-0.050			
0.9838	62963.88	3.0310	3.0310	-0.0702	25.67	0.06	-0.050			
0.9839	62968.36	3.0300	3.0301	-0.0699	25.67	0.06	-0.050			
0.9840	62972.83	3.0290	3.0291	-0.0697	25.67	0.06	-0.050			
0.9840	62977.28	3.0280	3.0281	-0.0694	25.67	0.06	-0.050			
0.9841	62981.72	3.0270	3.0269	-0.0692	25.67	0.06	-0.050			
0.9842	62986.14	3.0260	3.0259	-0.0689	25.67	0.06	-0.050			
0.9842	62990.54	3.0250	3.0250	-0.0686	25.66	0.05	-0.050			
0.9843	62994.77	3.0240	3.0241	-0.0686	25.66	0.05	-0.050			
0.9844	62999.16	3.0230	3.0231	-0.0685	25.66	0.05	-0.050			
0.9844	63003.54	3.0220	3.0221	-0.0683	25.66	0.05	-0.050			
0.9845	63007.90	3.0210	3.0209	-0.0681	25.66	0.05	-0.050			
0.9846	63012.25	3.0200	3.0199	-0.0679	25.66	0.05	-0.050			
0.9846	63016.46	3.0190	3.0190	-0.0675	25.65	0.04	-0.050			
0.9847	63020.78	3.0180	3.0179	-0.0674	25.65	0.04	-0.050			
0.9848	63025.09	3.0170	3.0168	-0.0673	25.65	0.04	-0.050			
0.9848	63029.39	3.0160	3.0160	-0.0672	25.65	0.04	-0.050			
0.9849	63033.69	3.0150	3.0150	-0.0670	25.65	0.04	-0.050			
0.9850	63037.97	3.0140	3.0140	-0.0669	25.65	0.04	-0.050			
0.9850	63042.25	3.0130	3.0130	-0.0668	25.65	0.04	-0.050			
0.9851	63046.52	3.0120	3.0120	-0.0667	25.65	0.04	-0.050			
0.9852	63050.69	3.0110	3.0111	-0.0667	25.65	0.04	-0.050			
0.9852	63054.95	3.0100	3.0102	-0.0667	25.66	0.05	-0.050			
0.9853	63059.22	3.0090	3.0091	-0.0666	25.66	0.05	-0.050			
0.9854	63063.48	3.0080	3.0081	-0.0666	25.66	0.05	-0.050			
0.9854	63067.74	3.0070	3.0070	-0.0665	25.66	0.05	-0.050			
0.9855	63072.00	3.0060	3.0060	-0.0665	25.66	0.05	-0.050			
0.9856	63076.25	3.0050	3.0049	-0.0665	25.66	0.05	-0.050			
