Ah_balance (normalized)	Ah_balance (mAh)	Voltage - fit (V)	Voltage -  interpolate (V)	dQ/dV (1/V)	Temperature (°C)	Temperature - diff (°C)	Current (C)	R_DC 0ms (mOhm)	R_DC 50ms (mOhm)	R_DC 50 ms PEC (mOhm)
0.0002	12.18	4.1850	4.1849	-0.3799	24.67	0.00	-0.050			
0.0006	37.57	4.1840	4.1839	-0.4199	24.67	-0.00	-0.050			
0.0010	65.42	4.1830	4.1830	-0.4493	24.66	-0.01	-0.050			
0.0015	95.17	4.1820	4.1816	-0.4778	24.66	-0.01	-0.050			
0.0020	128.15	4.1810	4.1810	-0.5110	24.66	-0.01	-0.050			
0.0025	161.62	4.1800	4.1799	-0.5348	24.66	-0.01	-0.050			
0.0031	197.79	4.1790	4.1788	-0.5593	24.66	-0.01	-0.050			
0.0037	234.93	4.1780	4.1780	-0.5807	24.66	-0.01	-0.050			
0.0043	274.55	4.1770	4.1773	-0.5994	24.66	-0.01	-0.050			
0.0049	314.45	4.1760	4.1761	-0.6156	24.66	-0.01	-0.050			
0.0056	355.39	4.1750	4.1750	-0.6294	24.65	-0.02	-0.050			
0.0062	396.68	4.1740	4.1740	-0.6425	24.66	-0.01	-0.050			
0.0069	441.86	4.1730	4.1730	-0.6598	24.65	-0.02	-0.050			
0.0076	484.75	4.1720	4.1721	-0.6686	24.66	-0.01	-0.050			
0.0083	529.49	4.1710	4.1712	-0.6801	24.66	-0.01	-0.050			
0.0090	574.25	4.1700	4.1700	-0.6859	24.65	-0.02	-0.050			
0.0097	618.73	4.1690	4.1692	-0.6940	24.66	-0.01	-0.050			
0.0104	664.07	4.1680	4.1682	-0.7014	24.65	-0.02	-0.050			
0.0111	708.96	4.1670	4.1672	-0.7057	24.66	-0.01	-0.050			
0.0118	754.67	4.1660	4.1660	-0.7117	24.65	-0.02	-0.050			
0.0125	801.04	4.1650	4.1650	-0.7195	24.64	-0.03	-0.050			
0.0132	847.16	4.1640	4.1639	-0.7235	24.64	-0.03	-0.050			
0.0140	893.16	4.1630	4.1630	-0.7276	24.65	-0.02	-0.050			
0.0147	939.68	4.1620	4.1620	-0.7308	24.66	-0.01	-0.050			
0.0154	986.43	4.1610	4.1611	-0.7353	24.64	-0.03	-0.050			
0.0162	1033.74	4.1600	4.1598	-0.7401	24.64	-0.03	-0.050			
0.0169	1081.57	4.1590	4.1592	-0.7429	24.64	-0.03	-0.050			
0.0176	1129.35	4.1580	4.1580	-0.7502	24.64	-0.03	-0.050			
0.0184	1177.42	4.1570	4.1570	-0.7559	24.64	-0.03	-0.050			
0.0192	1226.71	4.1560	4.1560	-0.7613	24.64	-0.03	-0.050			
0.0199	1275.38	4.1550	4.1547	-0.7649	24.64	-0.03	-0.050			
0.0207	1325.17	4.1540	4.1538	-0.7666	24.64	-0.03	-0.050			
0.0215	1375.29	4.1530	4.1531	-0.7674	24.64	-0.03	-0.050			
0.0223	1425.42	4.1520	4.1521	-0.7678	24.64	-0.03	-0.050			
0.0231	1475.58	4.1510	4.1510	-0.7671	24.64	-0.03	-0.050			
0.0238	1525.58	4.1500	4.1500	-0.7652	24.64	-0.03	-0.050			
0.0246	1575.49	4.1490	4.1488	-0.7622	24.65	-0.02	-0.050			
0.0254	1624.36	4.1480	4.1482	-0.7604	24.65	-0.02	-0.050			
0.0261	1672.90	4.1470	4.1472	-0.7596	24.65	-0.02	-0.050			
0.0269	1721.11	4.1460	4.1463	-0.7572	24.66	-0.01	-0.050			
0.0276	1769.06	4.1450	4.1450	-0.7546	24.66	-0.01	-0.050			
0.0284	1816.23	4.1440	4.1441	-0.7559	24.66	-0.01	-0.050			
0.0291	1864.10	4.1430	4.1432	-0.7568	24.66	-0.01	-0.050			
0.0299	1911.65	4.1420	4.1419	-0.7582	24.65	-0.02	-0.050			
0.0306	1959.17	4.1410	4.1410	-0.7601	24.66	-0.01	-0.050			
0.0314	2006.72	4.1400	4.1398	-0.7621	24.66	-0.01	-0.050			
0.0321	2055.33	4.1390	4.1387	-0.7630	24.65	-0.02	-0.050			
0.0329	2102.53	4.1380	4.1380	-0.7629	24.65	-0.02	-0.050			
0.0336	2151.63	4.1370	4.1369	-0.7671	24.64	-0.03	-0.050			
0.0344	2200.42	4.1360	4.1360	-0.7722	24.66	-0.01	-0.050			
0.0352	2250.28	4.1350	4.1349	-0.7779	24.66	-0.01	-0.050			
0.0360	2301.57	4.1340	4.1340	-0.7825	24.65	-0.02	-0.050			
0.0368	2352.65	4.1330	4.1331	-0.7865	24.65	-0.02	-0.050			
0.0376	2404.28	4.1320	4.1320	-0.7908	24.66	-0.01	-0.050			
0.0384	2455.24	4.1310	4.1310	-0.7945	24.66	-0.01	-0.050			
0.0392	2506.74	4.1300	4.1302	-0.7968	24.66	-0.01	-0.050			
0.0400	2558.11	4.1290	4.1292	-0.7987	24.66	-0.01	-0.050	0.540	0.754	
0.0408	2609.14	4.1280	4.1281	-0.7996	24.65	-0.02	-0.050			
0.0416	2660.10	4.1270	4.1270	-0.8007	24.65	-0.02	-0.050			
0.0424	2711.05	4.1260	4.1261	-0.8024	24.65	-0.02	-0.050			
0.0432	2762.68	4.1250	4.1250	-0.8041	24.65	-0.02	-0.050			
0.0440	2813.32	4.1240	4.1239	-0.8055	24.66	-0.01	-0.050			
0.0448	2864.71	4.1230	4.1232	-0.8067	24.66	-0.01	-0.050			
0.0456	2916.23	4.1220	4.1219	-0.8095	24.66	-0.01	-0.050			
0.0464	2968.63	4.1210	4.1211	-0.8116	24.66	-0.01	-0.050			
0.0472	3020.71	4.1200	4.1201	-0.8134	24.66	-0.01	-0.050			
0.0480	3072.66	4.1190	4.1189	-0.8160	24.66	-0.01	-0.050			
0.0488	3125.87	4.1180	4.1179	-0.8166	24.65	-0.02	-0.050			
0.0497	3177.91	4.1170	4.1171	-0.8161	24.65	-0.02	-0.050			
0.0505	3230.44	4.1160	4.1160	-0.8190	24.65	-0.02	-0.050			
0.0513	3282.77	4.1150	4.1150	-0.8193	24.64	-0.03	-0.050			
0.0521	3336.10	4.1140	4.1139	-0.8215	24.64	-0.03	-0.050			
0.0529	3388.69	4.1130	4.1131	-0.8221	24.64	-0.03	-0.050			
0.0538	3441.30	4.1120	4.1121	-0.8231	24.63	-0.04	-0.050			
0.0546	3493.18	4.1110	4.1110	-0.8241	24.64	-0.03	-0.050			
0.0554	3546.13	4.1100	4.1102	-0.8266	24.64	-0.03	-0.050			
0.0562	3599.01	4.1090	4.1091	-0.8275	24.64	-0.03	-0.050			
0.0571	3651.96	4.1080	4.1077	-0.8277	24.62	-0.05	-0.050			
0.0579	3705.11	4.1070	4.1071	-0.8273	24.62	-0.05	-0.050			
0.0587	3759.02	4.1060	4.1061	-0.8260	24.63	-0.04	-0.050			
0.0596	3811.90	4.1050	4.1049	-0.8242	24.62	-0.05	-0.050			
0.0604	3865.18	4.1040	4.1039	-0.8226	24.62	-0.05	-0.050	0.828	0.876	
0.0612	3918.25	4.1030	4.1029	-0.8210	24.62	-0.05	-0.050			
0.0620	3971.07	4.1020	4.1021	-0.8201	24.63	-0.04	-0.050			
0.0629	4023.68	4.1010	4.1013	-0.8207	24.62	-0.05	-0.050			
0.0637	4076.24	4.1000	4.1000	-0.8196	24.64	-0.03	-0.050			
0.0645	4128.41	4.0990	4.0991	-0.8184	24.64	-0.03	-0.050			
0.0653	4180.26	4.0980	4.0980	-0.8187	24.66	-0.01	-0.050			
0.0661	4232.54	4.0970	4.0972	-0.8175	24.65	-0.02	-0.050			
0.0669	4284.25	4.0960	4.0959	-0.8170	24.64	-0.03	-0.050			
0.0677	4335.52	4.0950	4.0949	-0.8190	24.62	-0.05	-0.050			
0.0685	4386.87	4.0940	4.0938	-0.8211	24.61	-0.06	-0.050			
0.0694	4439.19	4.0930	4.0931	-0.8197	24.59	-0.08	-0.050			
0.0702	4491.49	4.0920	4.0920	-0.8217	24.59	-0.08	-0.050			
0.0710	4543.71	4.0910	4.0910	-0.8215	24.60	-0.07	-0.050			
0.0718	4596.19	4.0900	4.0901	-0.8273	24.59	-0.08	-0.050			
0.0726	4648.97	4.0890	4.0889	-0.8310	24.58	-0.09	-0.050			
0.0735	4701.52	4.0880	4.0879	-0.8395	24.59	-0.08	-0.050			
0.0743	4755.09	4.0870	4.0872	-0.8469	24.60	-0.07	-0.050			
0.0751	4809.53	4.0860	4.0861	-0.8541	24.60	-0.07	-0.050			
0.0760	4864.47	4.0850	4.0851	-0.8580	24.60	-0.07	-0.050			
0.0769	4921.42	4.0840	4.0842	-0.8587	24.60	-0.07	-0.050			
0.0778	4977.98	4.0830	4.0826	-0.8590	24.60	-0.07	-0.050			
0.0787	5033.82	4.0820	4.0818	-0.8573	24.60	-0.07	-0.050			
0.0795	5090.70	4.0810	4.0806	-0.8526	24.62	-0.05	-0.050			
0.0804	5145.90	4.0800	4.0800	-0.8504	24.62	-0.05	-0.050	0.623	0.522	
0.0813	5200.70	4.0790	4.0788	-0.8489	24.62	-0.05	-0.050			
0.0821	5255.69	4.0780	4.0783	-0.8478	24.62	-0.05	-0.050			
0.0830	5309.42	4.0770	4.0771	-0.8460	24.61	-0.06	-0.050			
0.0838	5363.21	4.0760	4.0763	-0.8462	24.62	-0.05	-0.050			
0.0846	5416.65	4.0750	4.0752	-0.8448	24.62	-0.05	-0.050			
0.0855	5469.44	4.0740	4.0740	-0.8443	24.62	-0.05	-0.050			
0.0863	5523.23	4.0730	4.0728	-0.8452	24.62	-0.05	-0.050			
0.0871	5576.60	4.0720	4.0718	-0.8437	24.62	-0.05	-0.050			
0.0880	5630.79	4.0710	4.0707	-0.8425	24.62	-0.05	-0.050			
0.0888	5682.68	4.0700	4.0699	-0.8375	24.62	-0.05	-0.050			
0.0896	5735.82	4.0690	4.0690	-0.8367	24.62	-0.05	-0.050			
0.0904	5788.29	4.0680	4.0679	-0.8347	24.62	-0.05	-0.050			
0.0913	5842.01	4.0670	4.0672	-0.8391	24.63	-0.04	-0.050			
0.0921	5896.20	4.0660	4.0662	-0.8430	24.64	-0.03	-0.050			
0.0930	5950.91	4.0650	4.0648	-0.8502	24.64	-0.03	-0.050			
0.0938	6006.33	4.0640	4.0641	-0.8553	24.64	-0.03	-0.050			
0.0947	6062.63	4.0630	4.0629	-0.8589	24.64	-0.03	-0.050			
0.0956	6117.77	4.0620	4.0618	-0.8588	24.63	-0.04	-0.050			
0.0965	6173.12	4.0610	4.0609	-0.8597	24.64	-0.03	-0.050			
0.0973	6228.38	4.0600	4.0599	-0.8582	24.63	-0.04	-0.050			
0.0982	6282.48	4.0590	4.0588	-0.8552	24.64	-0.03	-0.050			
0.0990	6337.49	4.0580	4.0581	-0.8557	24.64	-0.03	-0.050			
0.0999	6391.50	4.0570	4.0569	-0.8551	24.64	-0.03	-0.050	0.709	0.842	
0.1007	6445.72	4.0560	4.0561	-0.8562	24.64	-0.03	-0.050			
0.1016	6500.75	4.0550	4.0552	-0.8577	24.64	-0.03	-0.050			
0.1024	6555.52	4.0540	4.0541	-0.8583	24.64	-0.03	-0.050			
0.1033	6610.79	4.0530	4.0530	-0.8595	24.64	-0.03	-0.050			
0.1041	6665.33	4.0520	4.0517	-0.8628	24.64	-0.03	-0.050			
0.1050	6721.07	4.0510	4.0510	-0.8661	24.64	-0.03	-0.050			
0.1059	6776.79	4.0500	4.0498	-0.8671	24.64	-0.03	-0.050			
0.1067	6831.55	4.0490	4.0491	-0.8680	24.64	-0.03	-0.050			
0.1076	6887.29	4.0480	4.0480	-0.8659	24.64	-0.03	-0.050			
0.1085	6943.03	4.0470	4.0469	-0.8671	24.63	-0.04	-0.050			
0.1093	6998.04	4.0460	4.0462	-0.8679	24.64	-0.03	-0.050			
0.1102	7052.65	4.0450	4.0449	-0.8707	24.64	-0.03	-0.050			
0.1111	7108.35	4.0440	4.0441	-0.8762	24.63	-0.04	-0.050			
0.1120	7165.09	4.0430	4.0428	-0.8798	24.64	-0.03	-0.050			
0.1128	7221.65	4.0420	4.0421	-0.8829	24.64	-0.03	-0.050			
0.1137	7279.08	4.0410	4.0413	-0.8828	24.63	-0.04	-0.050			
0.1146	7336.45	4.0400	4.0399	-0.8818	24.63	-0.04	-0.050			
0.1155	7393.70	4.0390	4.0390	-0.8809	24.64	-0.03	-0.050			
0.1164	7450.12	4.0380	4.0377	-0.8787	24.63	-0.04	-0.050			
0.1173	7506.48	4.0370	4.0371	-0.8790	24.64	-0.03	-0.050			
0.1182	7563.25	4.0360	4.0360	-0.8780	24.63	-0.04	-0.050			
0.1191	7620.24	4.0350	4.0352	-0.8758	24.64	-0.03	-0.050			
0.1199	7675.80	4.0340	4.0340	-0.8753	24.64	-0.03	-0.050			
0.1208	7731.62	4.0330	4.0331	-0.8742	24.64	-0.03	-0.050			
0.1217	7786.52	4.0320	4.0323	-0.8742	24.64	-0.03	-0.050			
0.1225	7842.25	4.0310	4.0309	-0.8756	24.64	-0.03	-0.050			
0.1234	7898.23	4.0300	4.0300	-0.8767	24.63	-0.04	-0.050			
0.1243	7953.99	4.0290	4.0288	-0.8761	24.62	-0.05	-0.050			
0.1251	8009.44	4.0280	4.0280	-0.8776	24.62	-0.05	-0.050			
0.1260	8065.29	4.0270	4.0270	-0.8756	24.63	-0.04	-0.050			
0.1269	8121.54	4.0260	4.0260	-0.8754	24.64	-0.03	-0.050			
0.1278	8176.20	4.0250	4.0248	-0.8748	24.64	-0.03	-0.050			
0.1286	8231.87	4.0240	4.0239	-0.8779	24.64	-0.03	-0.050			
0.1295	8288.67	4.0230	4.0230	-0.8824	24.63	-0.04	-0.050			
0.1304	8345.25	4.0220	4.0221	-0.8875	24.62	-0.05	-0.050			
0.1313	8401.97	4.0210	4.0212	-0.8933	24.63	-0.04	-0.050			
0.1322	8459.34	4.0200	4.0200	-0.8983	24.62	-0.05	-0.050			
0.1331	8517.24	4.0190	4.0188	-0.9021	24.62	-0.05	-0.050			
0.1340	8574.98	4.0180	4.0184	-0.9055	24.63	-0.04	-0.050			
0.1349	8632.89	4.0170	4.0169	-0.9068	24.64	-0.03	-0.050			
0.1358	8691.38	4.0160	4.0158	-0.9112	24.64	-0.03	-0.050			
0.1367	8750.18	4.0150	4.0147	-0.9136	24.64	-0.03	-0.050			
0.1376	8808.09	4.0140	4.0141	-0.9148	24.64	-0.03	-0.050			
0.1385	8866.75	4.0130	4.0129	-0.9180	24.64	-0.03	-0.050			
0.1395	8925.39	4.0120	4.0121	-0.9214	24.63	-0.04	-0.050			
0.1404	8985.35	4.0110	4.0110	-0.9242	24.63	-0.04	-0.050	0.577	0.452	
0.1413	9045.14	4.0100	4.0101	-0.9279	24.62	-0.05	-0.050			
0.1423	9105.46	4.0090	4.0090	-0.9255	24.62	-0.05	-0.050			
0.1432	9167.81	4.0080	4.0079	-0.9199	24.63	-0.04	-0.050			
0.1442	9227.84	4.0070	4.0068	-0.9183	24.62	-0.05	-0.050			
0.1451	9286.95	4.0060	4.0061	-0.9145	24.63	-0.04	-0.050			
0.1460	9345.16	4.0050	4.0048	-0.9087	24.64	-0.03	-0.050			
0.1469	9403.16	4.0040	4.0040	-0.9047	24.64	-0.03	-0.050			
0.1478	9460.98	4.0030	4.0031	-0.9003	24.64	-0.03	-0.050			
0.1487	9517.93	4.0020	4.0023	-0.8955	24.64	-0.03	-0.050			
0.1496	9574.26	4.0010	4.0011	-0.8920	24.64	-0.03	-0.050			
0.1505	9631.37	4.0000	4.0003	-0.8896	24.64	-0.03	-0.050			
0.1514	9686.91	3.9990	3.9988	-0.8908	24.65	-0.02	-0.050			
0.1522	9742.93	3.9980	3.9978	-0.8905	24.65	-0.02	-0.050			
0.1531	9798.11	3.9970	3.9968	-0.8913	24.64	-0.03	-0.050			
0.1540	9853.77	3.9960	3.9960	-0.8930	24.64	-0.03	-0.050			
0.1548	9909.56	3.9950	3.9951	-0.8949	24.65	-0.02	-0.050			
0.1557	9965.89	3.9940	3.9941	-0.8984	24.65	-0.02	-0.050			
0.1566	10023.25	3.9930	3.9929	-0.8998	24.64	-0.03	-0.050			
0.1575	10081.17	3.9920	3.9921	-0.9047	24.65	-0.02	-0.050			
0.1584	10140.25	3.9910	3.9910	-0.9083	24.64	-0.03	-0.050			
0.1594	10198.82	3.9900	3.9900	-0.9143	24.65	-0.02	-0.050			
0.1603	10258.39	3.9890	3.9891	-0.9193	24.64	-0.03	-0.050			
0.1612	10318.63	3.9880	3.9883	-0.9275	24.65	-0.02	-0.050			
0.1622	10377.97	3.9870	3.9872	-0.9301	24.64	-0.03	-0.050			
0.1631	10437.44	3.9860	3.9863	-0.9319	24.65	-0.02	-0.050			
0.1640	10497.89	3.9850	3.9851	-0.9346	24.65	-0.02	-0.050			
0.1650	10558.48	3.9840	3.9840	-0.9361	24.64	-0.03	-0.050			
0.1659	10618.91	3.9830	3.9829	-0.9389	24.64	-0.03	-0.050			
0.1669	10678.78	3.9820	3.9821	-0.9390	24.64	-0.03	-0.050			
0.1678	10738.26	3.9810	3.9808	-0.9420	24.64	-0.03	-0.050			
0.1687	10799.06	3.9800	3.9801	-0.9432	24.64	-0.03	-0.050			
0.1697	10858.62	3.9790	3.9790	-0.9409	24.64	-0.03	-0.050			
0.1706	10917.98	3.9780	3.9782	-0.9434	24.64	-0.03	-0.050			
0.1715	10978.34	3.9770	3.9770	-0.9472	24.64	-0.03	-0.050			
0.1725	11039.33	3.9760	3.9761	-0.9508	24.65	-0.02	-0.050			
0.1734	11100.19	3.9750	3.9751	-0.9534	24.64	-0.03	-0.050			
0.1744	11162.38	3.9740	3.9739	-0.9548	24.64	-0.03	-0.050			
0.1754	11224.64	3.9730	3.9731	-0.9550	24.64	-0.03	-0.050			
0.1763	11285.18	3.9720	3.9720	-0.9562	24.64	-0.03	-0.050			
0.1773	11346.46	3.9710	3.9712	-0.9583	24.65	-0.02	-0.050			
0.1783	11408.55	3.9700	3.9698	-0.9554	24.64	-0.03	-0.050			
0.1792	11470.43	3.9690	3.9690	-0.9531	24.65	-0.02	-0.050			
0.1802	11531.55	3.9680	3.9677	-0.9500	24.64	-0.03	-0.050	0.484	0.844	
0.1812	11593.67	3.9670	3.9671	-0.9484	24.64	-0.03	-0.050			
0.1821	11654.85	3.9660	3.9660	-0.9448	24.64	-0.03	-0.050			
0.1831	11715.58	3.9650	3.9652	-0.9447	24.64	-0.03	-0.050			
0.1840	11775.17	3.9640	3.9638	-0.9449	24.64	-0.03	-0.050			
0.1849	11834.85	3.9630	3.9629	-0.9419	24.64	-0.03	-0.050			
0.1859	11894.64	3.9620	3.9623	-0.9413	24.64	-0.03	-0.050			
0.1868	11953.99	3.9610	3.9612	-0.9394	24.64	-0.03	-0.050			
0.1877	12013.86	3.9600	3.9600	-0.9401	24.65	-0.02	-0.050			
0.1886	12073.05	3.9590	3.9587	-0.9403	24.64	-0.03	-0.050			
0.1896	12131.61	3.9580	3.9580	-0.9395	24.63	-0.04	-0.050			
0.1905	12191.14	3.9570	3.9569	-0.9437	24.64	-0.03	-0.050			
0.1914	12251.46	3.9560	3.9557	-0.9463	24.64	-0.03	-0.050			
0.1924	12312.42	3.9550	3.9550	-0.9491	24.64	-0.03	-0.050			
0.1933	12373.23	3.9540	3.9541	-0.9533	24.64	-0.03	-0.050			
0.1943	12432.99	3.9530	3.9531	-0.9607	24.63	-0.04	-0.050			
0.1952	12493.01	3.9520	3.9522	-0.9669	24.64	-0.03	-0.050			
0.1962	12555.46	3.9510	3.9510	-0.9751	24.64	-0.03	-0.050			
0.1972	12619.94	3.9500	3.9501	-0.9827	24.64	-0.03	-0.050			
0.1982	12684.85	3.9490	3.9491	-0.9869	24.63	-0.04	-0.050			
0.1992	12749.11	3.9480	3.9479	-0.9863	24.64	-0.03	-0.050			
0.2002	12814.40	3.9470	3.9469	-0.9817	24.64	-0.03	-0.050	0.569	0.751	
0.2012	12877.30	3.9460	3.9457	-0.9809	24.64	-0.03	-0.050			
0.2022	12940.28	3.9450	3.9447	-0.9790	24.64	-0.03	-0.050			
0.2032	13003.91	3.9440	3.9438	-0.9776	24.64	-0.03	-0.050			
0.2042	13066.56	3.9430	3.9432	-0.9755	24.65	-0.02	-0.050			
0.2052	13129.81	3.9420	3.9421	-0.9765	24.64	-0.03	-0.050			
0.2061	13192.85	3.9410	3.9413	-0.9752	24.64	-0.03	-0.050			
0.2071	13254.37	3.9400	3.9402	-0.9730	24.64	-0.03	-0.050			
0.2081	13315.34	3.9390	3.9388	-0.9720	24.64	-0.03	-0.050			
0.2090	13377.16	3.9380	3.9378	-0.9695	24.64	-0.03	-0.050			
0.2100	13439.24	3.9370	3.9367	-0.9643	24.64	-0.03	-0.050			
0.2109	13500.65	3.9360	3.9359	-0.9632	24.64	-0.03	-0.050			
0.2119	13560.27	3.9350	3.9351	-0.9631	24.64	-0.03	-0.050			
0.2128	13621.12	3.9340	3.9339	-0.9629	24.64	-0.03	-0.050			
0.2138	13681.16	3.9330	3.9330	-0.9595	24.66	-0.01	-0.050			
0.2147	13742.36	3.9320	3.9319	-0.9635	24.66	-0.01	-0.050			
0.2157	13804.34	3.9310	3.9310	-0.9682	24.66	-0.01	-0.050			
0.2167	13868.22	3.9300	3.9301	-0.9718	24.66	-0.01	-0.050			
0.2177	13931.34	3.9290	3.9288	-0.9773	24.67	-0.00	-0.050			
0.2187	13994.33	3.9280	3.9279	-0.9795	24.66	-0.01	-0.050			
0.2196	14056.58	3.9270	3.9270	-0.9823	24.66	-0.01	-0.050			
0.2206	14118.41	3.9260	3.9260	-0.9819	24.67	-0.00	-0.050			
0.2216	14181.98	3.9250	3.9252	-0.9825	24.66	-0.01	-0.050			
0.2226	14245.45	3.9240	3.9239	-0.9842	24.65	-0.02	-0.050			
0.2236	14308.43	3.9230	3.9232	-0.9861	24.66	-0.01	-0.050			
0.2246	14371.78	3.9220	3.9220	-0.9850	24.66	-0.01	-0.050			
0.2255	14434.77	3.9210	3.9212	-0.9836	24.66	-0.01	-0.050			
0.2265	14498.36	3.9200	3.9200	-0.9856	24.66	-0.01	-0.050			
0.2275	14561.70	3.9190	3.9190	-0.9868	24.66	-0.01	-0.050			
0.2285	14625.13	3.9180	3.9180	-0.9878	24.67	-0.00	-0.050			
0.2295	14688.19	3.9170	3.9169	-0.9920	24.66	-0.01	-0.050			
0.2305	14751.32	3.9160	3.9162	-0.9934	24.66	-0.01	-0.050			
0.2314	14812.35	3.9150	3.9149	-0.9961	24.66	-0.01	-0.050			
0.2324	14876.44	3.9140	3.9139	-1.0009	24.66	-0.01	-0.050			
0.2335	14941.16	3.9130	3.9130	-1.0019	24.66	-0.01	-0.050			
0.2345	15005.45	3.9120	3.9119	-1.0011	24.66	-0.01	-0.050			
0.2355	15071.39	3.9110	3.9109	-0.9981	24.66	-0.01	-0.050			
0.2365	15136.19	3.9100	3.9098	-0.9982	24.66	-0.01	-0.050			
0.2375	15199.70	3.9090	3.9089	-0.9977	24.66	-0.01	-0.050			
0.2385	15263.44	3.9080	3.9078	-0.9981	24.65	-0.02	-0.050			
0.2395	15327.62	3.9070	3.9070	-0.9970	24.65	-0.02	-0.050			
0.2405	15391.34	3.9060	3.9061	-0.9979	24.66	-0.01	-0.050			
0.2415	15455.25	3.9050	3.9052	-1.0011	24.66	-0.01	-0.050			
0.2425	15519.46	3.9040	3.9042	-1.0014	24.66	-0.01	-0.050			
0.2435	15583.58	3.9030	3.9034	-1.0023	24.66	-0.01	-0.050			
0.2445	15648.49	3.9020	3.9021	-1.0013	24.66	-0.01	-0.050			
0.2455	15712.10	3.9010	3.9008	-1.0010	24.66	-0.01	-0.050			
0.2465	15776.03	3.9000	3.8998	-0.9981	24.65	-0.02	-0.050			
0.2475	15839.31	3.8990	3.8992	-0.9987	24.65	-0.02	-0.050			
0.2485	15902.18	3.8980	3.8982	-0.9980	24.65	-0.02	-0.050			
0.2495	15965.01	3.8970	3.8968	-0.9955	24.65	-0.02	-0.050			
0.2504	16028.53	3.8960	3.8959	-0.9980	24.66	-0.01	-0.050			
0.2514	16092.25	3.8950	3.8951	-0.9991	24.66	-0.01	-0.050			
0.2524	16156.66	3.8940	3.8941	-1.0089	24.66	-0.01	-0.050			
0.2535	16221.74	3.8930	3.8930	-1.0143	24.67	-0.00	-0.050			
0.2545	16287.79	3.8920	3.8918	-1.0175	24.66	-0.01	-0.050			
0.2555	16352.73	3.8910	3.8910	-1.0205	24.66	-0.01	-0.050			
0.2565	16417.50	3.8900	3.8898	-1.0223	24.66	-0.01	-0.050			
0.2575	16481.60	3.8890	3.8890	-1.0247	24.67	0.00	-0.050			
0.2585	16546.52	3.8880	3.8881	-1.0299	24.67	0.00	-0.050			
0.2596	16613.14	3.8870	3.8868	-1.0342	24.67	-0.00	-0.050			
0.2606	16679.44	3.8860	3.8861	-1.0354	24.66	-0.01	-0.050			
0.2617	16746.03	3.8850	3.8848	-1.0389	24.65	-0.02	-0.050			
0.2627	16813.65	3.8840	3.8841	-1.0402	24.67	-0.00	-0.050			
0.2638	16883.17	3.8830	3.8831	-1.0386	24.66	-0.01	-0.050			
0.2649	16951.54	3.8820	3.8818	-1.0304	24.67	0.00	-0.050			
0.2659	17018.96	3.8810	3.8809	-1.0276	24.67	0.00	-0.050			
0.2670	17085.46	3.8800	3.8800	-1.0235	24.67	0.00	-0.050			
0.2680	17150.83	3.8790	3.8791	-1.0209	24.67	0.00	-0.050			
0.2690	17216.21	3.8780	3.8781	-1.0188	24.68	0.01	-0.050			
0.2700	17281.28	3.8770	3.8772	-1.0157	24.68	0.01	-0.050			
0.2710	17345.30	3.8760	3.8759	-1.0116	24.68	0.01	-0.050			
0.2720	17408.60	3.8750	3.8752	-1.0096	24.67	0.00	-0.050			
0.2730	17471.12	3.8740	3.8742	-1.0054	24.67	0.00	-0.050			
0.2740	17534.15	3.8730	3.8727	-1.0070	24.67	0.00	-0.050			
0.2750	17598.31	3.8720	3.8718	-1.0068	24.67	0.00	-0.050			
0.2759	17660.73	3.8710	3.8710	-1.0049	24.67	0.00	-0.050			
0.2769	17724.66	3.8700	3.8700	-1.0053	24.66	-0.01	-0.050			
0.2779	17787.84	3.8690	3.8692	-1.0070	24.67	0.00	-0.050			
0.2789	17851.80	3.8680	3.8680	-1.0103	24.67	0.00	-0.050			
0.2800	17917.67	3.8670	3.8669	-1.0143	24.66	-0.01	-0.050	0.241	0.554	
0.2810	17983.66	3.8660	3.8662	-1.0193	24.66	-0.01	-0.050			
0.2820	18049.74	3.8650	3.8649	-1.0227	24.66	-0.01	-0.050			
0.2831	18116.41	3.8640	3.8640	-1.0273	24.66	-0.01	-0.050			
0.2841	18183.34	3.8630	3.8631	-1.0341	24.67	0.00	-0.050			
0.2852	18250.51	3.8620	3.8619	-1.0342	24.67	0.00	-0.050			
0.2862	18315.92	3.8610	3.8611	-1.0336	24.68	0.01	-0.050			
0.2872	18382.02	3.8600	3.8600	-1.0327	24.68	0.01	-0.050			
0.2882	18447.28	3.8590	3.8590	-1.0353	24.67	0.00	-0.050			
0.2893	18513.07	3.8580	3.8582	-1.0390	24.67	0.00	-0.050			
0.2903	18579.16	3.8570	3.8571	-1.0424	24.66	-0.01	-0.050			
0.2913	18645.37	3.8560	3.8561	-1.0459	24.66	-0.01	-0.050			
0.2924	18711.93	3.8550	3.8549	-1.0478	24.66	-0.01	-0.050			
0.2934	18779.80	3.8540	3.8539	-1.0498	24.66	-0.01	-0.050			
0.2945	18847.33	3.8530	3.8531	-1.0522	24.66	-0.01	-0.050			
0.2956	18915.30	3.8520	3.8519	-1.0546	24.66	-0.01	-0.050			
0.2966	18983.24	3.8510	3.8508	-1.0570	24.66	-0.01	-0.050			
0.2977	19051.33	3.8500	3.8498	-1.0593	24.67	-0.00	-0.050			
0.2987	19119.35	3.8490	3.8490	-1.0595	24.66	-0.01	-0.050			
0.2998	19188.51	3.8480	3.8480	-1.0583	24.66	-0.01	-0.050	0.649	0.761	
0.3009	19257.82	3.8470	3.8471	-1.0575	24.66	-0.01	-0.050			
0.3020	19326.43	3.8460	3.8460	-1.0554	24.66	-0.01	-0.050			
0.3030	19393.67	3.8450	3.8451	-1.0526	24.66	-0.01	-0.050			
0.3041	19460.47	3.8440	3.8440	-1.0516	24.66	-0.01	-0.050			
0.3051	19527.41	3.8430	3.8428	-1.0496	24.66	-0.01	-0.050			
0.3062	19594.94	3.8420	3.8420	-1.0501	24.66	-0.01	-0.050			
0.3072	19661.19	3.8410	3.8408	-1.0473	24.66	-0.01	-0.050			
0.3083	19728.04	3.8400	3.8402	-1.0472	24.67	-0.00	-0.050			
0.3093	19793.32	3.8390	3.8391	-1.0450	24.66	-0.01	-0.050			
0.3103	19859.57	3.8380	3.8380	-1.0452	24.66	-0.01	-0.050			
0.3113	19925.72	3.8370	3.8368	-1.0464	24.66	-0.01	-0.050			
0.3124	19992.53	3.8360	3.8359	-1.0470	24.65	-0.02	-0.050			
0.3134	20059.36	3.8350	3.8349	-1.0511	24.65	-0.02	-0.050			
0.3145	20125.73	3.8340	3.8341	-1.0570	24.66	-0.01	-0.050			
0.3155	20192.19	3.8330	3.8331	-1.0652	24.66	-0.01	-0.050			
0.3166	20259.36	3.8320	3.8322	-1.0708	24.65	-0.02	-0.050			
0.3176	20327.97	3.8310	3.8311	-1.0763	24.66	-0.01	-0.050			
0.3187	20398.62	3.8300	3.8300	-1.0792	24.65	-0.02	-0.050			
0.3199	20471.29	3.8290	3.8289	-1.0750	24.66	-0.01	-0.050	0.678	0.761	
0.3210	20542.41	3.8280	3.8281	-1.0753	24.66	-0.01	-0.050			
0.3221	20611.61	3.8270	3.8270	-1.0753	24.65	-0.02	-0.050			
0.3231	20680.83	3.8260	3.8260	-1.0726	24.66	-0.01	-0.050			
0.3242	20749.96	3.8250	3.8249	-1.0700	24.66	-0.01	-0.050			
0.3253	20818.72	3.8240	3.8241	-1.0683	24.66	-0.01	-0.050			
0.3263	20886.03	3.8230	3.8234	-1.0700	24.66	-0.01	-0.050			
0.3274	20954.78	3.8220	3.8224	-1.0695	24.66	-0.01	-0.050			
0.3285	21022.49	3.8210	3.8212	-1.0692	24.66	-0.01	-0.050			
0.3295	21090.59	3.8200	3.8198	-1.0685	24.66	-0.01	-0.050			
0.3306	21158.37	3.8190	3.8186	-1.0660	24.66	-0.01	-0.050			
0.3316	21225.36	3.8180	3.8180	-1.0666	24.67	0.00	-0.050			
0.3327	21292.48	3.8170	3.8170	-1.0681	24.67	0.00	-0.050			
0.3338	21360.05	3.8160	3.8158	-1.0676	24.67	0.00	-0.050			
0.3348	21427.22	3.8150	3.8148	-1.0644	24.68	0.01	-0.050			
0.3359	21494.51	3.8140	3.8139	-1.0641	24.68	0.01	-0.050			
0.3369	21562.93	3.8130	3.8132	-1.0658	24.68	0.01	-0.050			
0.3380	21632.64	3.8120	3.8121	-1.0733	24.68	0.01	-0.050			
0.3391	21703.45	3.8110	3.8108	-1.0758	24.67	0.00	-0.050			
0.3402	21773.68	3.8100	3.8100	-1.0793	24.68	0.01	-0.050	0.606	0.898	
0.3413	21844.59	3.8090	3.8088	-1.0814	24.68	0.01	-0.050			
0.3424	21913.01	3.8080	3.8082	-1.0786	24.68	0.01	-0.050			
0.3435	21981.84	3.8070	3.8073	-1.0760	24.68	0.01	-0.050			
0.3445	22050.10	3.8060	3.8060	-1.0774	24.68	0.01	-0.050			
0.3456	22119.10	3.8050	3.8051	-1.0767	24.68	0.01	-0.050			
0.3467	22187.36	3.8040	3.8040	-1.0748	24.68	0.01	-0.050			
0.3477	22255.24	3.8030	3.8031	-1.0722	24.68	0.01	-0.050			
0.3488	22323.52	3.8020	3.8020	-1.0762	24.68	0.01	-0.050			
0.3499	22393.55	3.8010	3.8010	-1.0740	24.68	0.01	-0.050			
0.3510	22461.58	3.8000	3.7999	-1.0769	24.68	0.01	-0.050			
0.3520	22530.22	3.7990	3.7990	-1.0795	24.68	0.01	-0.050			
0.3531	22598.80	3.7980	3.7982	-1.0778	24.68	0.01	-0.050			
0.3542	22668.19	3.7970	3.7970	-1.0793	24.68	0.01	-0.050			
0.3553	22738.89	3.7960	3.7961	-1.0790	24.69	0.02	-0.050			
0.3564	22808.66	3.7950	3.7949	-1.0773	24.68	0.01	-0.050			
0.3575	22878.81	3.7940	3.7941	-1.0714	24.68	0.01	-0.050			
0.3586	22948.95	3.7930	3.7929	-1.0673	24.68	0.01	-0.050			
0.3597	23017.66	3.7920	3.7922	-1.0632	24.70	0.03	-0.050			
0.3607	23086.60	3.7910	3.7910	-1.0583	24.71	0.04	-0.050	0.821	0.950	
0.3618	23154.38	3.7900	3.7903	-1.0504	24.71	0.04	-0.050			
0.3628	23221.25	3.7890	3.7893	-1.0456	24.69	0.02	-0.050			
0.3639	23287.51	3.7880	3.7878	-1.0416	24.68	0.01	-0.050			
0.3649	23353.99	3.7870	3.7868	-1.0353	24.66	-0.01	-0.050			
0.3659	23419.05	3.7860	3.7861	-1.0291	24.65	-0.02	-0.050			
0.3669	23484.69	3.7850	3.7850	-1.0234	24.64	-0.03	-0.050			
0.3680	23549.88	3.7840	3.7839	-1.0190	24.64	-0.03	-0.050			
0.3690	23614.49	3.7830	3.7827	-1.0118	24.64	-0.03	-0.050			
0.3700	23678.69	3.7820	3.7821	-1.0043	24.64	-0.03	-0.050			
0.3710	23742.91	3.7810	3.7809	-1.0014	24.64	-0.03	-0.050			
0.3720	23805.68	3.7800	3.7799	-0.9929	24.64	-0.03	-0.050			
0.3730	23869.22	3.7790	3.7790	-0.9899	24.64	-0.03	-0.050			
0.3739	23932.72	3.7780	3.7781	-0.9894	24.65	-0.02	-0.050			
0.3749	23995.58	3.7770	3.7769	-0.9880	24.64	-0.03	-0.050			
0.3759	24059.88	3.7760	3.7762	-0.9853	24.65	-0.02	-0.050			
0.3769	24122.77	3.7750	3.7749	-0.9822	24.65	-0.02	-0.050			
0.3779	24186.01	3.7740	3.7743	-0.9800	24.65	-0.02	-0.050			
0.3789	24249.07	3.7730	3.7729	-0.9760	24.64	-0.03	-0.050			
0.3799	24310.81	3.7720	3.7721	-0.9681	24.65	-0.02	-0.050			
0.3808	24373.65	3.7710	3.7709	-0.9617	24.63	-0.04	-0.050			
0.3818	24434.87	3.7700	3.7702	-0.9563	24.64	-0.03	-0.050			
0.3827	24495.42	3.7690	3.7691	-0.9494	24.64	-0.03	-0.050			
0.3837	24556.20	3.7680	3.7681	-0.9435	24.64	-0.03	-0.050			
0.3846	24616.98	3.7670	3.7670	-0.9369	24.64	-0.03	-0.050			
0.3856	24677.46	3.7660	3.7659	-0.9304	24.64	-0.03	-0.050			
0.3865	24738.35	3.7650	3.7651	-0.9198	24.64	-0.03	-0.050			
0.3875	24798.56	3.7640	3.7641	-0.9079	24.64	-0.03	-0.050			
0.3884	24857.91	3.7630	3.7630	-0.8983	24.65	-0.02	-0.050			
0.3893	24915.63	3.7620	3.7619	-0.8843	24.66	-0.01	-0.050			
0.3902	24971.77	3.7610	3.7608	-0.8724	24.66	-0.01	-0.050			
0.3910	25027.03	3.7600	3.7601	-0.8596	24.66	-0.01	-0.050			
0.3919	25080.94	3.7590	3.7592	-0.8474	24.66	-0.01	-0.050			
0.3927	25134.44	3.7580	3.7582	-0.8363	24.66	-0.01	-0.050			
0.3935	25186.75	3.7570	3.7572	-0.8248	24.66	-0.01	-0.050			
0.3944	25239.09	3.7560	3.7562	-0.8144	24.66	-0.01	-0.050			
0.3951	25288.94	3.7550	3.7552	-0.8069	24.66	-0.01	-0.050			
0.3959	25339.60	3.7540	3.7540	-0.8003	24.66	-0.01	-0.050			
0.3967	25389.26	3.7530	3.7529	-0.7933	24.66	-0.01	-0.050			
0.3975	25438.83	3.7520	3.7517	-0.7886	24.66	-0.01	-0.050			
0.3983	25488.19	3.7510	3.7511	-0.7853	24.66	-0.01	-0.050			
0.3990	25536.57	3.7500	3.7499	-0.7778	24.66	-0.01	-0.050			
0.3998	25585.00	3.7490	3.7492	-0.7752	24.66	-0.01	-0.050			
0.4005	25635.07	3.7480	3.7482	-0.7749	24.66	-0.01	-0.050			
0.4013	25684.95	3.7470	3.7470	-0.7730	24.66	-0.01	-0.050			
0.4021	25734.21	3.7460	3.7459	-0.7745	24.66	-0.01	-0.050			
0.4029	25784.35	3.7450	3.7451	-0.7765	24.66	-0.01	-0.050			
0.4037	25834.43	3.7440	3.7440	-0.7768	24.66	-0.01	-0.050			
0.4044	25884.48	3.7430	3.7431	-0.7768	24.67	-0.00	-0.050			
0.4052	25933.63	3.7420	3.7419	-0.7746	24.66	-0.01	-0.050			
0.4060	25982.58	3.7410	3.7410	-0.7745	24.66	-0.01	-0.050			
0.4067	26031.81	3.7400	3.7399	-0.7770	24.66	-0.01	-0.050			
0.4075	26081.19	3.7390	3.7391	-0.7775	24.66	-0.01	-0.050			
0.4083	26130.50	3.7380	3.7381	-0.7791	24.65	-0.02	-0.050			
0.4091	26180.45	3.7370	3.7371	-0.7812	24.65	-0.02	-0.050			
0.4098	26230.19	3.7360	3.7360	-0.7838	24.66	-0.01	-0.050			
0.4106	26279.29	3.7350	3.7350	-0.7856	24.66	-0.01	-0.050			
0.4114	26329.43	3.7340	3.7342	-0.7885	24.65	-0.02	-0.050			
0.4122	26380.53	3.7330	3.7328	-0.7906	24.66	-0.01	-0.050			
0.4130	26430.36	3.7320	3.7318	-0.7972	24.66	-0.01	-0.050			
0.4138	26480.44	3.7310	3.7311	-0.8048	24.66	-0.01	-0.050			
0.4146	26531.45	3.7300	3.7299	-0.8119	24.66	-0.01	-0.050			
0.4154	26584.00	3.7290	3.7291	-0.8184	24.66	-0.01	-0.050			
0.4162	26636.01	3.7280	3.7281	-0.8252	24.66	-0.01	-0.050			
0.4170	26687.79	3.7270	3.7268	-0.8353	24.66	-0.01	-0.050			
0.4178	26741.01	3.7260	3.7258	-0.8452	24.66	-0.01	-0.050			
0.4187	26794.50	3.7250	3.7248	-0.8545	24.65	-0.02	-0.050			
0.4195	26849.31	3.7240	3.7239	-0.8660	24.66	-0.01	-0.050			
0.4204	26904.68	3.7230	3.7231	-0.8793	24.65	-0.02	-0.050	0.593	0.820	
0.4213	26961.18	3.7220	3.7221	-0.8897	24.65	-0.02	-0.050			
0.4222	27018.93	3.7210	3.7211	-0.8993	24.66	-0.01	-0.050			
0.4231	27077.25	3.7200	3.7201	-0.9095	24.64	-0.03	-0.050			
0.4240	27134.99	3.7190	3.7188	-0.9225	24.64	-0.03	-0.050			
0.4249	27194.60	3.7180	3.7181	-0.9369	24.64	-0.03	-0.050			
0.4259	27254.81	3.7170	3.7170	-0.9512	24.65	-0.02	-0.050			
0.4268	27315.91	3.7160	3.7161	-0.9654	24.65	-0.02	-0.050			
0.4278	27376.65	3.7150	3.7149	-0.9818	24.66	-0.01	-0.050			
0.4287	27438.62	3.7140	3.7141	-1.0012	24.65	-0.02	-0.050			
0.4297	27502.77	3.7130	3.7130	-1.0197	24.66	-0.01	-0.050			
0.4307	27566.03	3.7120	3.7121	-1.0385	24.66	-0.01	-0.050			
0.4317	27631.90	3.7110	3.7108	-1.0583	24.66	-0.01	-0.050			
0.4328	27700.04	3.7100	3.7101	-1.0815	24.65	-0.02	-0.050			
0.4339	27769.03	3.7090	3.7088	-1.1061	24.64	-0.03	-0.050			
0.4350	27838.31	3.7080	3.7081	-1.1325	24.64	-0.03	-0.050			
0.4361	27908.89	3.7070	3.7071	-1.1607	24.64	-0.03	-0.050			
0.4372	27983.52	3.7060	3.7059	-1.1929	24.64	-0.03	-0.050			
0.4385	28061.38	3.7050	3.7051	-1.2205	24.64	-0.03	-0.050			
0.4398	28144.08	3.7040	3.7041	-1.2386	24.64	-0.03	-0.050	0.729	0.815	
0.4410	28226.64	3.7030	3.7028	-1.2605	24.65	-0.02	-0.050			
0.4423	28310.37	3.7020	3.7021	-1.2860	24.64	-0.03	-0.050			
0.4437	28394.29	3.7010	3.7009	-1.3084	24.64	-0.03	-0.050			
0.4450	28479.02	3.7000	3.7000	-1.3318	24.64	-0.03	-0.050			
0.4463	28565.90	3.6990	3.6990	-1.3510	24.64	-0.03	-0.050			
0.4477	28653.94	3.6980	3.6982	-1.3680	24.64	-0.03	-0.050			
0.4491	28743.46	3.6970	3.6974	-1.3868	24.64	-0.03	-0.050			
0.4505	28831.46	3.6960	3.6963	-1.4093	24.64	-0.03	-0.050			
0.4519	28920.91	3.6950	3.6951	-1.4272	24.62	-0.05	-0.050			
0.4533	29012.29	3.6940	3.6936	-1.4469	24.62	-0.05	-0.050			
0.4548	29104.26	3.6930	3.6930	-1.4706	24.62	-0.05	-0.050			
0.4562	29197.84	3.6920	3.6918	-1.4891	24.62	-0.05	-0.050			
0.4577	29292.24	3.6910	3.6910	-1.5140	24.62	-0.05	-0.050			
0.4592	29387.65	3.6900	3.6902	-1.5392	24.63	-0.04	-0.050			
0.4607	29485.38	3.6890	3.6890	-1.5633	24.63	-0.04	-0.050	0.600	0.833	
0.4623	29584.89	3.6880	3.6878	-1.5847	24.63	-0.04	-0.050			
0.4639	29689.04	3.6870	3.6868	-1.6094	24.63	-0.04	-0.050			
0.4655	29793.40	3.6860	3.6862	-1.6483	24.64	-0.03	-0.050			
0.4672	29900.80	3.6850	3.6851	-1.6808	24.62	-0.05	-0.050			
0.4689	30011.18	3.6840	3.6840	-1.7084	24.63	-0.04	-0.050			
0.4707	30122.26	3.6830	3.6829	-1.7248	24.63	-0.04	-0.050			
0.4724	30233.90	3.6820	3.6819	-1.7473	24.62	-0.05	-0.050			
0.4742	30348.32	3.6810	3.6811	-1.7670	24.62	-0.05	-0.050			
0.4760	30462.73	3.6800	3.6802	-1.7885	24.62	-0.05	-0.050			
0.4778	30579.72	3.6790	3.6790	-1.8134	24.62	-0.05	-0.050			
0.4796	30695.86	3.6780	3.6779	-1.8369	24.62	-0.05	-0.050			
0.4815	30813.72	3.6770	3.6769	-1.8551	24.61	-0.06	-0.050			
0.4833	30932.67	3.6760	3.6763	-1.8720	24.62	-0.05	-0.050			
0.4852	31052.19	3.6750	3.6752	-1.8961	24.62	-0.05	-0.050			
0.4871	31171.31	3.6740	3.6741	-1.9262	24.62	-0.05	-0.050			
0.4890	31293.40	3.6730	3.6729	-1.9544	24.60	-0.07	-0.050			
0.4909	31417.79	3.6720	3.6721	-1.9792	24.60	-0.07	-0.050			
0.4929	31542.46	3.6710	3.6711	-2.0104	24.61	-0.06	-0.050			
0.4949	31672.09	3.6700	3.6701	-2.0409	24.62	-0.05	-0.050			
0.4970	31806.56	3.6690	3.6688	-2.0636	24.62	-0.05	-0.050			
0.4991	31942.67	3.6680	3.6679	-2.0828	24.62	-0.05	-0.050			
0.5012	32077.82	3.6670	3.6667	-2.1019	24.62	-0.05	-0.050	0.739	0.816	
0.5033	32213.81	3.6660	3.6660	-2.1251	24.61	-0.06	-0.050			
0.5055	32353.38	3.6650	3.6648	-2.1552	24.60	-0.07	-0.050			
0.5077	32493.55	3.6640	3.6642	-2.1783	24.60	-0.07	-0.050			
0.5099	32632.72	3.6630	3.6632	-2.2023	24.60	-0.07	-0.050			
0.5121	32773.54	3.6620	3.6622	-2.2285	24.62	-0.05	-0.050			
0.5143	32915.46	3.6610	3.6613	-2.2541	24.62	-0.05	-0.050			
0.5165	33057.26	3.6600	3.6601	-2.2828	24.62	-0.05	-0.050			
0.5188	33201.68	3.6590	3.6588	-2.3157	24.63	-0.04	-0.050			
0.5211	33348.69	3.6580	3.6578	-2.3468	24.63	-0.04	-0.050	0.623	0.805	
0.5234	33495.89	3.6570	3.6570	-2.3832	24.63	-0.04	-0.050			
0.5257	33647.48	3.6560	3.6560	-2.4207	24.64	-0.03	-0.050			
0.5281	33801.43	3.6550	3.6549	-2.4444	24.64	-0.03	-0.050			
0.5306	33960.19	3.6540	3.6540	-2.4751	24.63	-0.04	-0.050			
0.5331	34121.45	3.6530	3.6531	-2.5141	24.63	-0.04	-0.050			
0.5357	34284.18	3.6520	3.6518	-2.5535	24.62	-0.05	-0.050			
0.5383	34449.48	3.6510	3.6511	-2.5951	24.62	-0.05	-0.050			
0.5409	34620.30	3.6500	3.6501	-2.6340	24.62	-0.05	-0.050	0.494	0.608	
0.5437	34794.19	3.6490	3.6491	-2.6769	24.62	-0.05	-0.050			
0.5463	34964.45	3.6480	3.6480	-2.7290	24.64	-0.03	-0.050			
0.5491	35140.24	3.6470	3.6471	-2.7666	24.62	-0.05	-0.050			
0.5519	35319.98	3.6460	3.6461	-2.7974	24.64	-0.03	-0.050			
0.5547	35500.75	3.6450	3.6450	-2.8298	24.62	-0.05	-0.050			
0.5575	35681.90	3.6440	3.6439	-2.8595	24.62	-0.05	-0.050			
0.5604	35865.61	3.6430	3.6432	-2.8921	24.62	-0.05	-0.050			
0.5633	36052.37	3.6420	3.6421	-2.9186	24.62	-0.05	-0.050			
0.5662	36239.41	3.6410	3.6409	-2.9491	24.63	-0.04	-0.050			
0.5692	36429.67	3.6400	3.6402	-2.9856	24.63	-0.04	-0.050			
0.5722	36618.74	3.6390	3.6394	-3.0271	24.64	-0.03	-0.050			
0.5752	36813.84	3.6380	3.6378	-3.0709	24.63	-0.04	-0.050			
0.5784	37014.67	3.6370	3.6369	-3.1211	24.63	-0.04	-0.050			
0.5815	37213.43	3.6360	3.6361	-3.1667	24.63	-0.04	-0.050	0.684	0.887	
0.5846	37416.31	3.6350	3.6351	-3.2008	24.64	-0.03	-0.050			
0.5879	37622.56	3.6340	3.6339	-3.2238	24.64	-0.03	-0.050			
0.5911	37831.03	3.6330	3.6331	-3.2514	24.63	-0.04	-0.050			
0.5943	38037.02	3.6320	3.6321	-3.2743	24.62	-0.05	-0.050			
0.5977	38251.62	3.6310	3.6312	-3.3177	24.62	-0.05	-0.050			
0.6011	38472.54	3.6300	3.6301	-3.3512	24.62	-0.05	-0.050	0.421	0.556	
0.6045	38686.52	3.6290	3.6290	-3.3862	24.62	-0.05	-0.050			
0.6079	38905.29	3.6280	3.6283	-3.4291	24.62	-0.05	-0.050			
0.6113	39123.06	3.6270	3.6270	-3.4672	24.62	-0.05	-0.050			
0.6147	39344.00	3.6260	3.6259	-3.4920	24.61	-0.06	-0.050			
0.6183	39572.78	3.6250	3.6248	-3.4840	24.62	-0.05	-0.050			
0.6218	39796.87	3.6240	3.6240	-3.4841	24.62	-0.05	-0.050			
0.6254	40023.33	3.6230	3.6227	-3.4800	24.62	-0.05	-0.050			
0.6289	40250.13	3.6220	3.6221	-3.4857	24.62	-0.05	-0.050			
0.6324	40475.07	3.6210	3.6212	-3.5035	24.62	-0.05	-0.050			
0.6360	40702.30	3.6200	3.6203	-3.5119	24.64	-0.03	-0.050			
0.6395	40928.70	3.6190	3.6190	-3.4903	24.64	-0.03	-0.050			
0.6430	41150.64	3.6180	3.6178	-3.4714	24.65	-0.02	-0.050			
0.6464	41369.49	3.6170	3.6170	-3.4655	24.66	-0.01	-0.050			
0.6499	41591.22	3.6160	3.6159	-3.4390	24.66	-0.01	-0.050			
0.6533	41810.44	3.6150	3.6149	-3.3844	24.66	-0.01	-0.050			
0.6567	42029.32	3.6140	3.6140	-3.3521	24.69	0.02	-0.050			
0.6601	42245.77	3.6130	3.6130	-3.3163	24.62	-0.05	-0.050	0.702	0.925	
0.6635	42464.40	3.6120	3.6121	-3.3005	24.60	-0.07	-0.050			
0.6669	42679.81	3.6110	3.6109	-3.2692	24.60	-0.07	-0.050			
0.6701	42888.06	3.6100	3.6100	-3.2150	24.60	-0.07	-0.050			
0.6734	43094.50	3.6090	3.6093	-3.1573	24.61	-0.06	-0.050			
0.6765	43293.87	3.6080	3.6080	-3.0812	24.60	-0.07	-0.050			
0.6795	43488.62	3.6070	3.6069	-3.0073	24.60	-0.07	-0.050			
0.6825	43679.10	3.6060	3.6060	-2.9410	24.62	-0.05	-0.050			
0.6854	43864.16	3.6050	3.6049	-2.8719	24.62	-0.05	-0.050			
0.6882	44045.92	3.6040	3.6040	-2.8093	24.63	-0.04	-0.050			
0.6910	44220.82	3.6030	3.6031	-2.7369	24.62	-0.05	-0.050			
0.6936	44389.96	3.6020	3.6024	-2.6720	24.64	-0.03	-0.050			
0.6962	44557.81	3.6010	3.6008	-2.6206	24.63	-0.04	-0.050			
0.6988	44722.89	3.6000	3.6000	-2.5765	24.64	-0.03	-0.050			
0.7013	44883.24	3.5990	3.5993	-2.5263	24.65	-0.02	-0.050	0.638	0.876	
0.7037	45037.35	3.5980	3.5980	-2.4846	24.66	-0.01	-0.050			
0.7062	45194.05	3.5970	3.5969	-2.4420	24.66	-0.01	-0.050			
0.7085	45345.60	3.5960	3.5959	-2.4009	24.66	-0.01	-0.050			
0.7109	45495.16	3.5950	3.5949	-2.3585	24.67	0.00	-0.050			
0.7132	45641.79	3.5940	3.5937	-2.3171	24.67	0.00	-0.050			
0.7154	45787.19	3.5930	3.5928	-2.2837	24.67	0.00	-0.050			
0.7177	45933.95	3.5920	3.5920	-2.2587	24.68	0.01	-0.050			
0.7200	46079.41	3.5910	3.5909	-2.2367	24.68	0.01	-0.050	0.789	0.906	
0.7222	46221.52	3.5900	3.5900	-2.2063	24.67	0.00	-0.050			
0.7244	46362.98	3.5890	3.5889	-2.1793	24.68	0.01	-0.050			
0.7266	46502.40	3.5880	3.5881	-2.1469	24.69	0.02	-0.050			
0.7288	46640.49	3.5870	3.5871	-2.1184	24.70	0.03	-0.050			
0.7308	46774.26	3.5860	3.5860	-2.0936	24.70	0.03	-0.050			
0.7329	46906.70	3.5850	3.5849	-2.0710	24.68	0.01	-0.050			
0.7350	47037.66	3.5840	3.5840	-2.0479	24.68	0.01	-0.050			
0.7370	47166.98	3.5830	3.5830	-2.0179	24.70	0.03	-0.050			
0.7390	47292.91	3.5820	3.5820	-1.9896	24.69	0.02	-0.050			
0.7409	47418.01	3.5810	3.5808	-1.9637	24.70	0.03	-0.050			
0.7428	47541.74	3.5800	3.5801	-1.9365	24.70	0.03	-0.050			
0.7448	47664.61	3.5790	3.5790	-1.9048	24.70	0.03	-0.050			
0.7467	47787.17	3.5780	3.5777	-1.8707	24.70	0.03	-0.050			
0.7486	47909.13	3.5770	3.5767	-1.8483	24.70	0.03	-0.050			
0.7505	48029.19	3.5760	3.5760	-1.8214	24.70	0.03	-0.050			
0.7523	48145.56	3.5750	3.5752	-1.7941	24.71	0.04	-0.050			
0.7540	48258.67	3.5740	3.5742	-1.7658	24.72	0.05	-0.050			
0.7558	48368.83	3.5730	3.5730	-1.7444	24.72	0.05	-0.050			
0.7575	48479.64	3.5720	3.5721	-1.7184	24.72	0.05	-0.050			
0.7592	48586.62	3.5710	3.5712	-1.7010	24.72	0.05	-0.050			
0.7608	48692.33	3.5700	3.5700	-1.6850	24.73	0.06	-0.050			
0.7624	48795.33	3.5690	3.5690	-1.6718	24.73	0.06	-0.050			
0.7640	48897.86	3.5680	3.5679	-1.6658	24.74	0.07	-0.050			
0.7656	48999.21	3.5670	3.5669	-1.6547	24.74	0.07	-0.050			
0.7672	49099.04	3.5660	3.5658	-1.6456	24.74	0.07	-0.050			
0.7688	49200.75	3.5650	3.5647	-1.6529	24.74	0.07	-0.050			
0.7704	49305.08	3.5640	3.5640	-1.6591	24.74	0.07	-0.050			
0.7720	49410.83	3.5630	3.5630	-1.6721	24.74	0.07	-0.050			
0.7737	49517.90	3.5620	3.5618	-1.6818	24.74	0.07	-0.050			
0.7754	49627.30	3.5610	3.5610	-1.6927	24.74	0.07	-0.050			
0.7772	49740.19	3.5600	3.5600	-1.7014	24.74	0.07	-0.050			
0.7790	49852.93	3.5590	3.5590	-1.7077	24.74	0.07	-0.050			
0.7807	49965.44	3.5580	3.5579	-1.7084	24.74	0.07	-0.050	0.535	0.650	
0.7825	50077.72	3.5570	3.5569	-1.6983	24.74	0.07	-0.050			
0.7842	50189.31	3.5560	3.5560	-1.6956	24.73	0.06	-0.050			
0.7859	50299.69	3.5550	3.5552	-1.6854	24.73	0.06	-0.050			
0.7876	50408.80	3.5540	3.5540	-1.6716	24.74	0.07	-0.050			
0.7894	50518.76	3.5530	3.5529	-1.6581	24.74	0.07	-0.050			
0.7910	50626.27	3.5520	3.5521	-1.6377	24.74	0.07	-0.050			
0.7927	50731.45	3.5510	3.5512	-1.6170	24.73	0.06	-0.050			
0.7943	50835.38	3.5500	3.5502	-1.5909	24.74	0.07	-0.050			
0.7959	50937.25	3.5490	3.5492	-1.5631	24.74	0.07	-0.050			
0.7974	51036.45	3.5480	3.5478	-1.5343	24.74	0.07	-0.050			
0.7990	51133.31	3.5470	3.5468	-1.5145	24.74	0.07	-0.050			
0.8004	51228.44	3.5460	3.5462	-1.4874	24.74	0.07	-0.050	0.534	0.720	
0.8019	51320.83	3.5450	3.5449	-1.4600	24.74	0.07	-0.050			
0.8033	51413.32	3.5440	3.5441	-1.4368	24.75	0.08	-0.050			
0.8048	51505.22	3.5430	3.5430	-1.4072	24.74	0.07	-0.050			
0.8062	51597.50	3.5420	3.5418	-1.3738	24.74	0.07	-0.050			
0.8076	51686.20	3.5410	3.5409	-1.3424	24.75	0.08	-0.050			
0.8090	51774.22	3.5400	3.5400	-1.3082	24.74	0.07	-0.050			
0.8103	51857.31	3.5390	3.5388	-1.2737	24.74	0.07	-0.050			
0.8115	51938.16	3.5380	3.5379	-1.2386	24.74	0.07	-0.050			
0.8128	52016.07	3.5370	3.5371	-1.2072	24.74	0.07	-0.050			
0.8139	52091.04	3.5360	3.5362	-1.1724	24.74	0.07	-0.050			
0.8151	52164.38	3.5350	3.5354	-1.1465	24.74	0.07	-0.050			
0.8162	52234.78	3.5340	3.5343	-1.1208	24.74	0.07	-0.050			
0.8173	52304.55	3.5330	3.5330	-1.0922	24.74	0.07	-0.050			
0.8183	52372.86	3.5320	3.5317	-1.0663	24.73	0.06	-0.050			
0.8193	52436.17	3.5310	3.5309	-1.0450	24.72	0.05	-0.050			
0.8203	52500.15	3.5300	3.5300	-1.0241	24.72	0.05	-0.050	0.747	0.864	
0.8213	52561.13	3.5290	3.5288	-1.0082	24.74	0.07	-0.050			
0.8222	52620.55	3.5280	3.5278	-0.9952	24.73	0.06	-0.050			
0.8231	52679.15	3.5270	3.5271	-0.9794	24.73	0.06	-0.050			
0.8241	52740.91	3.5260	3.5261	-0.9784	24.72	0.05	-0.050			
0.8250	52802.67	3.5250	3.5251	-0.9770	24.73	0.06	-0.050			
0.8260	52864.95	3.5240	3.5241	-0.9784	24.72	0.05	-0.050			
0.8270	52928.28	3.5230	3.5229	-0.9812	24.74	0.07	-0.050			
0.8280	52991.27	3.5220	3.5219	-0.9877	24.74	0.07	-0.050			
0.8290	53054.38	3.5210	3.5208	-0.9886	24.74	0.07	-0.050			
0.8300	53117.46	3.5200	3.5199	-0.9887	24.74	0.07	-0.050			
0.8309	53180.00	3.5190	3.5191	-0.9887	24.74	0.07	-0.050			
0.8319	53243.56	3.5180	3.5179	-0.9909	24.74	0.07	-0.050			
0.8329	53306.85	3.5170	3.5171	-0.9918	24.74	0.07	-0.050			
0.8339	53372.10	3.5160	3.5160	-0.9898	24.74	0.07	-0.050			
0.8349	53436.04	3.5150	3.5152	-0.9906	24.74	0.07	-0.050			
0.8360	53501.84	3.5140	3.5139	-0.9885	24.74	0.07	-0.050			
0.8370	53565.65	3.5130	3.5127	-0.9869	24.74	0.07	-0.050			
0.8380	53630.52	3.5120	3.5122	-0.9812	24.74	0.07	-0.050			
0.8390	53693.31	3.5110	3.5112	-0.9733	24.74	0.07	-0.050			
0.8399	53756.02	3.5100	3.5102	-0.9657	24.74	0.07	-0.050			
0.8409	53818.97	3.5090	3.5091	-0.9558	24.74	0.07	-0.050	0.614	1.050	
0.8419	53881.34	3.5080	3.5080	-0.9427	24.73	0.06	-0.050			
0.8429	53942.93	3.5070	3.5070	-0.9308	24.73	0.06	-0.050			
0.8438	54003.27	3.5060	3.5057	-0.9176	24.74	0.07	-0.050			
0.8447	54061.32	3.5050	3.5051	-0.9032	24.74	0.07	-0.050			
0.8456	54119.24	3.5040	3.5039	-0.8923	24.74	0.07	-0.050			
0.8465	54174.48	3.5030	3.5032	-0.8776	24.73	0.06	-0.050			
0.8473	54228.22	3.5020	3.5021	-0.8651	24.72	0.05	-0.050			
0.8482	54282.54	3.5010	3.5009	-0.8552	24.73	0.06	-0.050			
0.8490	54335.91	3.5000	3.5001	-0.8461	24.73	0.06	-0.050			
0.8498	54387.88	3.4990	3.4991	-0.8431	24.74	0.07	-0.050			
0.8506	54438.96	3.4980	3.4981	-0.8384	24.74	0.07	-0.050			
0.8514	54489.42	3.4970	3.4967	-0.8426	24.73	0.06	-0.050			
0.8522	54539.20	3.4960	3.4961	-0.8506	24.72	0.05	-0.050			
0.8530	54588.83	3.4950	3.4950	-0.8671	24.73	0.06	-0.050			
0.8537	54636.12	3.4940	3.4939	-0.8905	24.72	0.05	-0.050			
0.8545	54688.66	3.4930	3.4933	-0.9197	24.72	0.05	-0.050			
0.8553	54739.74	3.4920	3.4923	-0.9540	24.72	0.05	-0.050			
0.8562	54797.44	3.4910	3.4909	-0.9980	24.72	0.05	-0.050			
0.8570	54851.05	3.4900	3.4901	-1.0677	24.72	0.05	-0.050			
0.8580	54910.44	3.4890	3.4890	-1.1289	24.72	0.05	-0.050			
0.8589	54972.53	3.4880	3.4883	-1.2199	24.72	0.05	-0.050			
0.8601	55043.36	3.4870	3.4874	-1.3191	24.72	0.05	-0.050	0.674	0.846	
0.8613	55125.09	3.4860	3.4860	-1.4236	24.72	0.05	-0.050			
0.8628	55217.81	3.4850	3.4851	-1.5152	24.73	0.06	-0.050			
0.8644	55323.67	3.4840	3.4840	-1.6157	24.72	0.05	-0.050			
0.8662	55434.51	3.4830	3.4827	-1.7173	24.73	0.06	-0.050			
0.8680	55552.98	3.4820	3.4816	-1.8182	24.72	0.05	-0.050			
0.8700	55679.09	3.4810	3.4809	-1.9145	24.71	0.04	-0.050			
0.8720	55808.56	3.4800	3.4799	-2.0080	24.72	0.05	-0.050			
0.8742	55947.92	3.4790	3.4789	-2.0959	24.71	0.04	-0.050			
0.8764	56089.21	3.4780	3.4781	-2.1715	24.70	0.03	-0.050			
0.8787	56239.67	3.4770	3.4772	-2.2396	24.72	0.05	-0.050			
0.8812	56394.03	3.4760	3.4762	-2.2920	24.71	0.04	-0.050	0.551	0.752	
0.8836	56549.09	3.4750	3.4749	-2.3348	24.71	0.04	-0.050			
0.8861	56709.69	3.4740	3.4738	-2.3731	24.72	0.05	-0.050			
0.8886	56869.83	3.4730	3.4730	-2.3881	24.72	0.05	-0.050			
0.8911	57028.37	3.4720	3.4720	-2.3969	24.72	0.05	-0.050			
0.8935	57185.41	3.4710	3.4711	-2.3869	24.72	0.05	-0.050			
0.8960	57342.65	3.4700	3.4700	-2.3592	24.72	0.05	-0.050			
0.8984	57495.97	3.4690	3.4690	-2.3338	24.71	0.04	-0.050			
0.9008	57649.37	3.4680	3.4682	-2.2991	24.72	0.05	-0.050	0.473	0.824	
0.9031	57800.73	3.4670	3.4669	-2.2651	24.72	0.05	-0.050			
0.9055	57951.49	3.4660	3.4661	-2.2347	24.72	0.05	-0.050			
0.9078	58097.87	3.4650	3.4648	-2.1904	24.72	0.05	-0.050			
0.9100	58238.81	3.4640	3.4639	-2.1396	24.72	0.05	-0.050			
0.9121	58375.26	3.4630	3.4630	-2.0807	24.72	0.05	-0.050			
0.9142	58507.67	3.4620	3.4622	-2.0217	24.72	0.05	-0.050			
0.9162	58634.81	3.4610	3.4610	-1.9601	24.72	0.05	-0.050			
0.9181	58758.65	3.4600	3.4600	-1.8956	24.72	0.05	-0.050			
0.9200	58877.53	3.4590	3.4589	-1.8364	24.71	0.04	-0.050	0.514	1.123	
0.9217	58991.61	3.4580	3.4581	-1.7742	24.71	0.04	-0.050			
0.9235	59103.90	3.4570	3.4570	-1.7155	24.71	0.04	-0.050			
0.9252	59210.45	3.4560	3.4560	-1.6466	24.71	0.04	-0.050			
0.9268	59314.52	3.4550	3.4551	-1.5835	24.71	0.04	-0.050			
0.9283	59414.35	3.4540	3.4540	-1.5195	24.71	0.04	-0.050			
0.9298	59509.50	3.4530	3.4530	-1.4544	24.72	0.05	-0.050			
0.9313	59602.18	3.4520	3.4520	-1.3941	24.71	0.04	-0.050			
0.9327	59691.40	3.4510	3.4511	-1.3349	24.71	0.04	-0.050			
0.9340	59774.95	3.4500	3.4499	-1.2724	24.71	0.04	-0.050			
0.9352	59854.08	3.4490	3.4490	-1.2098	24.72	0.05	-0.050			
0.9364	59927.74	3.4480	3.4482	-1.1470	24.71	0.04	-0.050			
0.9375	59997.46	3.4470	3.4472	-1.0876	24.71	0.04	-0.050			
0.9385	60063.23	3.4460	3.4460	-1.0298	24.71	0.04	-0.050			
0.9395	60125.83	3.4450	3.4448	-0.9767	24.70	0.03	-0.050			
0.9404	60184.14	3.4440	3.4440	-0.9259	24.70	0.03	-0.050	0.400	0.681	
0.9412	60239.65	3.4430	3.4427	-0.8779	24.70	0.03	-0.050			
0.9421	60292.16	3.4420	3.4419	-0.8262	24.71	0.04	-0.050			
0.9428	60339.33	3.4410	3.4409	-0.7807	24.72	0.05	-0.050			
0.9435	60386.16	3.4400	3.4399	-0.7439	24.72	0.05	-0.050			
0.9442	60428.08	3.4390	3.4391	-0.7026	24.72	0.05	-0.050			
0.9449	60470.53	3.4380	3.4381	-0.6672	24.72	0.05	-0.050			
0.9455	60511.68	3.4370	3.4371	-0.6388	24.72	0.05	-0.050			
0.9461	60551.54	3.4360	3.4361	-0.6088	24.72	0.05	-0.050			
0.9467	60588.50	3.4350	3.4348	-0.5828	24.72	0.05	-0.050			
0.9472	60622.28	3.4340	3.4340	-0.5556	24.72	0.05	-0.050			
0.9478	60656.59	3.4330	3.4331	-0.5297	24.72	0.05	-0.050			
0.9483	60688.09	3.4320	3.4319	-0.5081	24.73	0.06	-0.050			
0.9487	60718.08	3.4310	3.4309	-0.4824	24.73	0.06	-0.050			
0.9492	60746.70	3.4300	3.4300	-0.4638	24.74	0.07	-0.050			
0.9496	60774.97	3.4290	3.4289	-0.4437	24.74	0.07	-0.050			
0.9500	60801.28	3.4280	3.4280	-0.4298	24.75	0.08	-0.050			
0.9504	60827.34	3.4270	3.4272	-0.4125	24.76	0.09	-0.050			
0.9508	60851.93	3.4260	3.4258	-0.4000	24.77	0.10	-0.050			
0.9512	60876.84	3.4250	3.4251	-0.3866	24.78	0.11	-0.050			
0.9516	60899.24	3.4240	3.4240	-0.3746	24.77	0.10	-0.050			
0.9519	60922.00	3.4230	3.4230	-0.3624	24.77	0.10	-0.050			
0.9523	60944.49	3.4220	3.4220	-0.3545	24.77	0.10	-0.050			
0.9526	60966.52	3.4210	3.4208	-0.3451	24.76	0.09	-0.050			
0.9529	60987.08	3.4200	3.4199	-0.3354	24.76	0.09	-0.050			
0.9532	61007.87	3.4190	3.4190	-0.3271	24.75	0.08	-0.050			
0.9536	61028.60	3.4180	3.4177	-0.3206	24.74	0.07	-0.050			
0.9539	61048.22	3.4170	3.4171	-0.3159	24.74	0.07	-0.050			
0.9542	61068.26	3.4160	3.4162	-0.3103	24.73	0.06	-0.050			
0.9545	61087.62	3.4150	3.4151	-0.3049	24.73	0.06	-0.050			
0.9548	61106.63	3.4140	3.4138	-0.2989	24.73	0.06	-0.050			
0.9551	61125.08	3.4130	3.4131	-0.2956	24.74	0.07	-0.050			
0.9554	61143.56	3.4120	3.4120	-0.2906	24.74	0.07	-0.050			
0.9557	61162.03	3.4110	3.4110	-0.2866	24.73	0.06	-0.050			
0.9559	61179.83	3.4100	3.4099	-0.2835	24.72	0.05	-0.050			
0.9562	61197.86	3.4090	3.4088	-0.2800	24.72	0.05	-0.050			
0.9565	61215.09	3.4080	3.4078	-0.2760	24.72	0.05	-0.050			
0.9568	61232.67	3.4070	3.4071	-0.2731	24.72	0.05	-0.050			
0.9570	61249.38	3.4060	3.4061	-0.2691	24.72	0.05	-0.050			
0.9573	61266.36	3.4050	3.4051	-0.2676	24.72	0.05	-0.050			
0.9576	61283.41	3.4040	3.4041	-0.2655	24.72	0.05	-0.050			
0.9578	61300.31	3.4030	3.4028	-0.2635	24.72	0.05	-0.050			
0.9581	61316.86	3.4020	3.4020	-0.2610	24.72	0.05	-0.050			
0.9583	61333.47	3.4010	3.4008	-0.2593	24.72	0.05	-0.050			
0.9586	61350.15	3.4000	3.4002	-0.2579	24.72	0.05	-0.050			
0.9589	61366.59	3.3990	3.3989	-0.2560	24.72	0.05	-0.050			
0.9591	61382.69	3.3980	3.3981	-0.2550	24.72	0.05	-0.050			
0.9594	61398.86	3.3970	3.3970	-0.2532	24.72	0.05	-0.050			
0.9596	61415.02	3.3960	3.3959	-0.2517	24.72	0.05	-0.050			
0.9598	61430.37	3.3950	3.3949	-0.2503	24.72	0.05	-0.050			
0.9601	61446.37	3.3940	3.3940	-0.2496	24.72	0.05	-0.050			
0.9604	61462.76	3.3930	3.3931	-0.2484	24.72	0.05	-0.050			
0.9606	61478.62	3.3920	3.3921	-0.2472	24.72	0.05	-0.050			
0.9609	61494.40	3.3910	3.3909	-0.2460	24.73	0.06	-0.050	0.470	0.709	
0.9611	61509.93	3.3900	3.3900	-0.2436	24.73	0.06	-0.050			
0.9613	61525.49	3.3890	3.3888	-0.2425	24.73	0.06	-0.050			
0.9616	61541.18	3.3880	3.3880	-0.2418	24.72	0.05	-0.050			
0.9618	61556.43	3.3870	3.3873	-0.2411	24.72	0.05	-0.050			
0.9621	61571.83	3.3860	3.3859	-0.2400	24.72	0.05	-0.050			
0.9623	61587.25	3.3850	3.3849	-0.2393	24.72	0.05	-0.050			
0.9625	61602.53	3.3840	3.3840	-0.2381	24.72	0.05	-0.050			
0.9628	61617.58	3.3830	3.3832	-0.2367	24.72	0.05	-0.050			
0.9630	61632.94	3.3820	3.3821	-0.2350	24.72	0.05	-0.050			
0.9633	61648.14	3.3810	3.3809	-0.2343	24.73	0.06	-0.050			
0.9635	61663.08	3.3800	3.3799	-0.2328	24.73	0.06	-0.050			
0.9637	61677.74	3.3790	3.3789	-0.2320	24.73	0.06	-0.050			
0.9639	61692.51	3.3780	3.3779	-0.2307	24.73	0.06	-0.050			
0.9642	61707.24	3.3770	3.3769	-0.2295	24.74	0.07	-0.050			
0.9644	61721.91	3.3760	3.3759	-0.2281	24.74	0.07	-0.050			
0.9646	61736.25	3.3750	3.3751	-0.2264	24.74	0.07	-0.050			
0.9649	61750.71	3.3740	3.3742	-0.2254	24.74	0.07	-0.050			
0.9651	61764.82	3.3730	3.3730	-0.2243	24.74	0.07	-0.050			
0.9653	61779.15	3.3720	3.3720	-0.2235	24.74	0.07	-0.050			
0.9655	61793.43	3.3710	3.3711	-0.2227	24.74	0.07	-0.050			
0.9657	61807.82	3.3700	3.3698	-0.2229	24.75	0.08	-0.050			
0.9660	61822.06	3.3690	3.3689	-0.2220	24.75	0.08	-0.050			
0.9662	61836.07	3.3680	3.3681	-0.2217	24.75	0.08	-0.050			
0.9664	61850.06	3.3670	3.3671	-0.2206	24.75	0.08	-0.050			
0.9666	61864.16	3.3660	3.3660	-0.2200	24.74	0.07	-0.050			
0.9668	61878.26	3.3650	3.3647	-0.2178	24.74	0.07	-0.050			
0.9671	61892.18	3.3640	3.3639	-0.2172	24.74	0.07	-0.050			
0.9673	61906.06	3.3630	3.3631	-0.2166	24.74	0.07	-0.050			
0.9675	61920.02	3.3620	3.3617	-0.2162	24.74	0.07	-0.050			
0.9677	61934.06	3.3610	3.3610	-0.2147	24.74	0.07	-0.050			
0.9679	61947.77	3.3600	3.3602	-0.2137	24.74	0.07	-0.050			
0.9682	61961.86	3.3590	3.3592	-0.2134	24.74	0.07	-0.050			
0.9684	61975.31	3.3580	3.3578	-0.2125	24.75	0.08	-0.050			
0.9686	61988.88	3.3570	3.3571	-0.2113	24.75	0.08	-0.050			
0.9688	62002.29	3.3560	3.3561	-0.2100	24.75	0.08	-0.050			
0.9690	62015.55	3.3550	3.3551	-0.2094	24.75	0.08	-0.050			
0.9692	62028.92	3.3540	3.3542	-0.2084	24.75	0.08	-0.050			
0.9694	62042.46	3.3530	3.3528	-0.2077	24.75	0.08	-0.050			
0.9696	62055.83	3.3520	3.3519	-0.2062	24.75	0.08	-0.050			
0.9698	62068.98	3.3510	3.3512	-0.2049	24.76	0.09	-0.050			
0.9700	62081.89	3.3500	3.3499	-0.2033	24.76	0.09	-0.050			
0.9702	62094.98	3.3490	3.3487	-0.2018	24.76	0.09	-0.050			
0.9704	62107.76	3.3480	3.3481	-0.2003	24.76	0.09	-0.050			
0.9706	62120.54	3.3470	3.3472	-0.1991	24.76	0.09	-0.050			
0.9708	62132.88	3.3460	3.3460	-0.1990	24.76	0.09	-0.050			
0.9710	62145.43	3.3450	3.3450	-0.1977	24.76	0.09	-0.050			
0.9712	62158.07	3.3440	3.3439	-0.1970	24.76	0.09	-0.050			
0.9714	62170.65	3.3430	3.3432	-0.1963	24.76	0.09	-0.050			
0.9716	62183.29	3.3420	3.3422	-0.1952	24.75	0.08	-0.050			
0.9718	62195.99	3.3410	3.3410	-0.1948	24.75	0.08	-0.050			
0.9720	62208.42	3.3400	3.3399	-0.1938	24.75	0.08	-0.050			
0.9722	62220.59	3.3390	3.3390	-0.1936	24.75	0.08	-0.050			
0.9724	62232.82	3.3380	3.3380	-0.1926	24.75	0.08	-0.050			
0.9726	62245.13	3.3370	3.3368	-0.1920	24.75	0.08	-0.050			
0.9728	62257.45	3.3360	3.3358	-0.1911	24.75	0.08	-0.050			
0.9730	62269.39	3.3350	3.3349	-0.1898	24.75	0.08	-0.050			
0.9731	62281.52	3.3340	3.3342	-0.1893	24.75	0.08	-0.050			
0.9733	62293.62	3.3330	3.3331	-0.1888	24.75	0.08	-0.050			
0.9735	62305.59	3.3320	3.3321	-0.1881	24.75	0.08	-0.050			
0.9737	62317.61	3.3310	3.3310	-0.1877	24.75	0.08	-0.050			
0.9739	62329.61	3.3300	3.3300	-0.1872	24.75	0.08	-0.050			
0.9741	62342.08	3.3290	3.3289	-0.1870	24.74	0.07	-0.050			
0.9743	62354.02	3.3280	3.3279	-0.1861	24.74	0.07	-0.050			
0.9745	62365.90	3.3270	3.3271	-0.1852	24.74	0.07	-0.050			
0.9747	62377.95	3.3260	3.3261	-0.1847	24.74	0.07	-0.050			
0.9748	62389.36	3.3250	3.3249	-0.1847	24.74	0.07	-0.050			
0.9750	62401.16	3.3240	3.3240	-0.1840	24.74	0.07	-0.050			
0.9752	62412.91	3.3230	3.3229	-0.1834	24.74	0.07	-0.050			
0.9754	62424.05	3.3220	3.3220	-0.1824	24.74	0.07	-0.050			
0.9756	62435.72	3.3210	3.3210	-0.1823	24.75	0.08	-0.050			
0.9757	62447.38	3.3200	3.3201	-0.1821	24.75	0.08	-0.050			
0.9759	62459.13	3.3190	3.3191	-0.1821	24.76	0.09	-0.050			
0.9761	62471.04	3.3180	3.3180	-0.1810	24.76	0.09	-0.050			
0.9763	62482.61	3.3170	3.3169	-0.1805	24.76	0.09	-0.050			
0.9765	62493.95	3.3160	3.3159	-0.1796	24.76	0.09	-0.050			
0.9766	62505.41	3.3150	3.3149	-0.1794	24.75	0.08	-0.050			
0.9768	62516.88	3.3140	3.3139	-0.1791	24.75	0.08	-0.050			
0.9770	62528.33	3.3130	3.3131	-0.1787	24.75	0.08	-0.050			
0.9772	62539.94	3.3120	3.3122	-0.1786	24.75	0.08	-0.050			
0.9774	62551.66	3.3110	3.3110	-0.1773	24.75	0.08	-0.050			
0.9775	62562.98	3.3100	3.3101	-0.1765	24.75	0.08	-0.050			
0.9777	62574.40	3.3090	3.3090	-0.1760	24.75	0.08	-0.050			
0.9779	62585.63	3.3080	3.3081	-0.1751	24.75	0.08	-0.050			
0.9781	62596.75	3.3070	3.3069	-0.1744	24.75	0.08	-0.050			
0.9782	62607.89	3.3060	3.3058	-0.1736	24.74	0.07	-0.050			
0.9784	62619.33	3.3050	3.3049	-0.1733	24.74	0.07	-0.050			
0.9786	62629.87	3.3040	3.3041	-0.1737	24.74	0.07	-0.050			
0.9788	62640.96	3.3030	3.3032	-0.1731	24.74	0.07	-0.050			
0.9789	62651.53	3.3020	3.3022	-0.1717	24.74	0.07	-0.050			
0.9791	62662.95	3.3010	3.3011	-0.1707	24.75	0.08	-0.050			
0.9793	62673.86	3.3000	3.3001	-0.1701	24.75	0.08	-0.050			
0.9794	62684.73	3.2990	3.2991	-0.1696	24.75	0.08	-0.050			
0.9796	62695.48	3.2980	3.2977	-0.1689	24.75	0.08	-0.050			
0.9798	62706.27	3.2970	3.2967	-0.1684	24.75	0.08	-0.050			
0.9800	62717.25	3.2960	3.2959	-0.1670	24.76	0.09	-0.050			
0.9801	62728.19	3.2950	3.2950	-0.1670	24.76	0.09	-0.050			
0.9803	62738.85	3.2940	3.2939	-0.1661	24.76	0.09	-0.050			
0.9805	62749.45	3.2930	3.2927	-0.1651	24.76	0.09	-0.050			
0.9806	62759.81	3.2920	3.2920	-0.1649	24.76	0.09	-0.050			
0.9808	62770.22	3.2910	3.2911	-0.1639	24.76	0.09	-0.050	0.553	0.797	
0.9809	62780.69	3.2900	3.2898	-0.1633	24.76	0.09	-0.050			
0.9811	62791.12	3.2890	3.2890	-0.1626	24.76	0.09	-0.050			
0.9813	62801.53	3.2880	3.2879	-0.1618	24.76	0.09	-0.050			
0.9814	62812.23	3.2870	3.2869	-0.1618	24.76	0.09	-0.050			
0.9816	62822.55	3.2860	3.2860	-0.1608	24.76	0.09	-0.050			
0.9818	62832.82	3.2850	3.2850	-0.1599	24.76	0.09	-0.050			
0.9819	62842.45	3.2840	3.2840	-0.1593	24.76	0.09	-0.050			
0.9821	62852.63	3.2830	3.2829	-0.1589	24.76	0.09	-0.050			
0.9822	62862.78	3.2820	3.2819	-0.1584	24.76	0.09	-0.050			
0.9824	62872.31	3.2810	3.2810	-0.1569	24.76	0.09	-0.050			
0.9825	62882.58	3.2800	3.2801	-0.1565	24.76	0.09	-0.050			
0.9827	62892.60	3.2790	3.2791	-0.1564	24.76	0.09	-0.050			
0.9829	62902.60	3.2780	3.2781	-0.1563	24.76	0.09	-0.050			
0.9830	62912.60	3.2770	3.2770	-0.1562	24.76	0.09	-0.050			
0.9832	62922.98	3.2760	3.2758	-0.1563	24.76	0.09	-0.050			
0.9833	62932.97	3.2750	3.2750	-0.1559	24.76	0.09	-0.050			
0.9835	62942.94	3.2740	3.2740	-0.1555	24.76	0.09	-0.050			
0.9836	62952.88	3.2730	3.2731	-0.1551	24.76	0.09	-0.050			
0.9838	62963.23	3.2720	3.2721	-0.1543	24.76	0.09	-0.050			
0.9840	62973.08	3.2710	3.2709	-0.1535	24.76	0.09	-0.050			
0.9841	62982.88	3.2700	3.2700	-0.1527	24.75	0.08	-0.050			
0.9843	62992.63	3.2690	3.2691	-0.1519	24.75	0.08	-0.050			
0.9844	63002.33	3.2680	3.2681	-0.1512	24.75	0.08	-0.050			
0.9846	63011.94	3.2670	3.2669	-0.1505	24.75	0.08	-0.050			
0.9847	63021.55	3.2660	3.2659	-0.1498	24.75	0.08	-0.050			
0.9849	63031.11	3.2650	3.2650	-0.1490	24.76	0.09	-0.050			
0.9850	63040.96	3.2640	3.2640	-0.1486	24.76	0.09	-0.050			
0.9852	63050.07	3.2630	3.2630	-0.1487	24.76	0.09	-0.050			
0.9853	63059.56	3.2620	3.2621	-0.1480	24.76	0.09	-0.050			
0.9855	63069.01	3.2610	3.2612	-0.1474	24.76	0.09	-0.050			
0.9856	63078.09	3.2600	3.2598	-0.1464	24.76	0.09	-0.050			
0.9857	63087.29	3.2590	3.2587	-0.1464	24.76	0.09	-0.050			
0.9859	63096.65	3.2580	3.2579	-0.1461	24.76	0.09	-0.050			
0.9860	63105.99	3.2570	3.2569	-0.1459	24.76	0.09	-0.050			
0.9862	63115.09	3.2560	3.2559	-0.1453	24.76	0.09	-0.050			
0.9863	63124.69	3.2550	3.2548	-0.1445	24.76	0.09	-0.050			
0.9865	63133.93	3.2540	3.2542	-0.1442	24.76	0.09	-0.050			
0.9866	63143.15	3.2530	3.2531	-0.1439	24.75	0.08	-0.050			
0.9868	63152.25	3.2520	3.2519	-0.1434	24.75	0.08	-0.050			
0.9869	63161.42	3.2510	3.2511	-0.1431	24.75	0.08	-0.050			
0.9870	63170.74	3.2500	3.2501	-0.1424	24.75	0.08	-0.050			
0.9872	63179.84	3.2490	3.2490	-0.1419	24.75	0.08	-0.050			
0.9873	63188.91	3.2480	3.2481	-0.1415	24.74	0.07	-0.050			
0.9875	63198.52	3.2470	3.2471	-0.1418	24.74	0.07	-0.050			
0.9876	63207.31	3.2460	3.2461	-0.1415	24.74	0.07	-0.050			
0.9878	63216.35	3.2450	3.2449	-0.1409	24.74	0.07	-0.050			
0.9879	63225.35	3.2440	3.2441	-0.1403	24.74	0.07	-0.050			
0.9880	63234.34	3.2430	3.2430	-0.1398	24.75	0.08	-0.050			
0.9882	63243.27	3.2420	3.2419	-0.1392	24.75	0.08	-0.050			
0.9883	63252.28	3.2410	3.2411	-0.1383	24.75	0.08	-0.050			
0.9885	63261.10	3.2400	3.2399	-0.1376	24.76	0.09	-0.050			
0.9886	63269.78	3.2390	3.2391	-0.1366	24.76	0.09	-0.050			
0.9887	63278.50	3.2380	3.2377	-0.1360	24.76	0.09	-0.050			
0.9889	63287.19	3.2370	3.2367	-0.1354	24.76	0.09	-0.050			
0.9890	63295.65	3.2360	3.2359	-0.1355	24.76	0.09	-0.050			
0.9891	63304.15	3.2350	3.2352	-0.1346	24.76	0.09	-0.050			
0.9893	63312.76	3.2340	3.2341	-0.1343	24.76	0.09	-0.050			
0.9894	63321.34	3.2330	3.2332	-0.1339	24.76	0.09	-0.050			
0.9895	63329.90	3.2320	3.2322	-0.1336	24.76	0.09	-0.050			
0.9897	63338.32	3.2310	3.2312	-0.1338	24.76	0.09	-0.050			
0.9898	63346.83	3.2300	3.2303	-0.1335	24.76	0.09	-0.050			
0.9899	63355.37	3.2290	3.2291	-0.1334	24.76	0.09	-0.050			
0.9901	63363.90	3.2280	3.2280	-0.1332	24.76	0.09	-0.050			
0.9902	63372.55	3.2270	3.2271	-0.1327	24.76	0.09	-0.050			
0.9903	63380.97	3.2260	3.2259	-0.1322	24.76	0.09	-0.050			
0.9905	63389.42	3.2250	3.2247	-0.1320	24.76	0.09	-0.050			
0.9906	63397.86	3.2240	3.2239	-0.1317	24.76	0.09	-0.050			
0.9907	63406.29	3.2230	3.2231	-0.1315	24.76	0.09	-0.050			
0.9909	63414.77	3.2220	3.2223	-0.1310	24.76	0.09	-0.050			
0.9910	63423.06	3.2210	3.2209	-0.1305	24.76	0.09	-0.050			
0.9911	63431.40	3.2200	3.2201	-0.1303	24.76	0.09	-0.050			
0.9912	63439.73	3.2190	3.2193	-0.1301	24.76	0.09	-0.050			
0.9914	63448.05	3.2180	3.2181	-0.1298	24.76	0.09	-0.050			
0.9915	63456.40	3.2170	3.2169	-0.1294	24.75	0.08	-0.050			
0.9916	63465.02	3.2160	3.2161	-0.1300	24.75	0.08	-0.050			
0.9918	63473.32	3.2150	3.2150	-0.1295	24.75	0.08	-0.050			
0.9919	63481.59	3.2140	3.2139	-0.1290	24.75	0.08	-0.050			
0.9920	63489.83	3.2130	3.2130	-0.1285	24.75	0.08	-0.050			
0.9922	63498.12	3.2120	3.2121	-0.1277	24.75	0.08	-0.050			
0.9923	63506.24	3.2110	3.2111	-0.1270	24.75	0.08	-0.050			
0.9924	63514.35	3.2100	3.2102	-0.1265	24.75	0.08	-0.050			
0.9925	63522.42	3.2090	3.2092	-0.1259	24.75	0.08	-0.050			
0.9927	63530.46	3.2080	3.2079	-0.1253	24.75	0.08	-0.050			
0.9928	63538.39	3.2070	3.2071	-0.1247	24.75	0.08	-0.050			
0.9929	63546.36	3.2060	3.2058	-0.1242	24.75	0.08	-0.050			
0.9930	63554.29	3.2050	3.2050	-0.1237	24.75	0.08	-0.050			
0.9932	63562.19	3.2040	3.2042	-0.1232	24.75	0.08	-0.050			
0.9933	63570.06	3.2030	3.2030	-0.1227	24.75	0.08	-0.050			
0.9934	63577.91	3.2020	3.2019	-0.1227	24.75	0.08	-0.050			
0.9935	63585.74	3.2010	3.2011	-0.1222	24.75	0.08	-0.050			
0.9936	63593.55	3.2000	3.2000	-0.1217	24.75	0.08	-0.050			
0.9938	63601.33	3.1990	3.1987	-0.1212	24.75	0.08	-0.050			
0.9939	63609.07	3.1980	3.1978	-0.1207	24.75	0.08	-0.050			
0.9940	63616.65	3.1970	3.1970	-0.1201	24.74	0.07	-0.050			
0.9941	63624.18	3.1960	3.1962	-0.1200	24.74	0.07	-0.050			
0.9942	63631.85	3.1950	3.1951	-0.1197	24.74	0.07	-0.050			
0.9944	63639.50	3.1940	3.1939	-0.1194	24.74	0.07	-0.050			
0.9945	63647.14	3.1930	3.1930	-0.1192	24.74	0.07	-0.050			
0.9946	63654.43	3.1920	3.1918	-0.1184	24.74	0.07	-0.050			
0.9947	63662.38	3.1910	3.1910	-0.1178	24.74	0.07	-0.050			
0.9948	63669.90	3.1900	3.1901	-0.1174	24.75	0.08	-0.050			
0.9950	63677.40	3.1890	3.1891	-0.1171	24.75	0.08	-0.050			
0.9951	63684.89	3.1880	3.1880	-0.1167	24.75	0.08	-0.050			
0.9952	63692.64	3.1870	3.1868	-0.1168	24.75	0.08	-0.050			
0.9953	63699.91	3.1860	3.1860	-0.1165	24.75	0.08	-0.050			
0.9954	63707.36	3.1850	3.1848	-0.1161	24.75	0.08	-0.050			
0.9955	63714.78	3.1840	3.1839	-0.1157	24.75	0.08	-0.050			
0.9957	63722.17	3.1830	3.1831	-0.1153	24.76	0.09	-0.050			
0.9958	63729.57	3.1820	3.1822	-0.1150	24.76	0.09	-0.050			
0.9959	63736.92	3.1810	3.1811	-0.1145	24.76	0.09	-0.050			
0.9960	63744.20	3.1800	3.1799	-0.1142	24.76	0.09	-0.050			
0.9961	63751.50	3.1790	3.1791	-0.1138	24.76	0.09	-0.050			
0.9962	63758.77	3.1780	3.1778	-0.1134	24.76	0.09	-0.050			
0.9963	63766.01	3.1770	3.1770	-0.1129	24.76	0.09	-0.050			
0.9965	63773.17	3.1760	3.1762	-0.1125	24.76	0.09	-0.050			
0.9966	63780.36	3.1750	3.1749	-0.1121	24.76	0.09	-0.050			
0.9967	63787.59	3.1740	3.1739	-0.1115	24.76	0.09	-0.050			
0.9968	63794.72	3.1730	3.1732	-0.1111	24.76	0.09	-0.050			
0.9969	63801.81	3.1720	3.1721	-0.1106	24.76	0.09	-0.050			
0.9970	63808.79	3.1710	3.1708	-0.1100	24.76	0.09	-0.050			
0.9971	63815.82	3.1700	3.1698	-0.1096	24.76	0.09	-0.050			
0.9972	63822.82	3.1690	3.1690	-0.1093	24.76	0.09	-0.050			
0.9973	63829.76	3.1680	3.1680	-0.1090	24.77	0.10	-0.050			
0.9974	63836.73	3.1670	3.1669	-0.1087	24.77	0.10	-0.050			
0.9976	63843.89	3.1660	3.1660	-0.1088	24.77	0.10	-0.050			
0.9977	63850.83	3.1650	3.1652	-0.1083	24.77	0.10	-0.050			
0.9978	63857.75	3.1640	3.1640	-0.1078	24.77	0.10	-0.050			
0.9979	63864.63	3.1630	3.1629	-0.1073	24.77	0.10	-0.050			
0.9980	63871.42	3.1620	3.1618	-0.1070	24.77	0.10	-0.050			
0.9981	63878.25	3.1610	3.1607	-0.1066	24.77	0.10	-0.050			
0.9982	63884.88	3.1600	3.1599	-0.1058	24.76	0.09	-0.050			
0.9983	63891.64	3.1590	3.1591	-0.1055	24.76	0.09	-0.050			
0.9984	63898.38	3.1580	3.1580	-0.1052	24.76	0.09	-0.050			
0.9985	63904.85	3.1570	3.1570	-0.1055	24.76	0.09	-0.050			
0.9986	63911.59	3.1560	3.1561	-0.1053	24.76	0.09	-0.050			
0.9987	63918.33	3.1550	3.1549	-0.1052	24.76	0.09	-0.050			
0.9988	63924.88	3.1540	3.1540	-0.1047	24.76	0.09	-0.050			
0.9989	63931.57	3.1530	3.1532	-0.1046	24.76	0.09	-0.050			
0.9990	63938.27	3.1520	3.1522	-0.1046	24.76	0.09	-0.050			
0.9991	63944.96	3.1510	3.1510	-0.1045	24.76	0.09	-0.050			
0.9992	63951.76	3.1500	3.1500	-0.1040	24.76	0.09	-0.050			
0.9994	63958.42	3.1490	3.1490	-0.1039	24.76	0.09	-0.050			
0.9995	63965.10	3.1480	3.1480	-0.1038	24.76	0.09	-0.050			
0.9996	63971.74	3.1470	3.1469	-0.1037	24.76	0.09	-0.050			
0.9997	63978.37	3.1460	3.1458	-0.1035	24.76	0.09	-0.050			
0.9998	63984.99	3.1450	3.1448	-0.1033	24.76	0.09	-0.050			
0.9999	63991.89	3.1440	3.1439	-0.1023	24.77	0.10	-0.050			
1.0000	63998.43	3.1430	3.1431	-0.1019	24.77	0.10	-0.050			
1.0001	64005.10	3.1420	3.1420	-0.1019	24.77	0.10	-0.050			
1.0002	64011.61	3.1410	3.1408	-0.1014	24.77	0.10	-0.050			
1.0003	64018.08	3.1400	3.1402	-0.1009	24.77	0.10	-0.050			
1.0004	64024.52	3.1390	3.1390	-0.1004	24.77	0.10	-0.050			
1.0005	64030.88	3.1380	3.1380	-0.1001	24.77	0.10	-0.050			
1.0006	64037.51	3.1370	3.1369	-0.1003	24.77	0.10	-0.050			
1.0007	64043.91	3.1360	3.1359	-0.0997	24.78	0.11	-0.050			
1.0008	64050.27	3.1350	3.1348	-0.0991	24.78	0.11	-0.050	0.338	0.752	
1.0009	64056.59	3.1340	3.1340	-0.0985	24.78	0.11	-0.050			
1.0010	64062.87	3.1330	3.1329	-0.0979	24.78	0.11	-0.050			
1.0011	64068.86	3.1320	3.1320	-0.0980	24.78	0.11	-0.050			
1.0012	64075.12	3.1310	3.1309	-0.0976	24.78	0.11	-0.050			
1.0013	64081.02	3.1300	3.1299	-0.0964	24.78	0.11	-0.050			
1.0014	64087.19	3.1290	3.1290	-0.0961	24.78	0.11	-0.050			
1.0015	64093.33	3.1280	3.1280	-0.0959	24.78	0.11	-0.050			
1.0016	64099.46	3.1270	3.1270	-0.0956	24.77	0.10	-0.050			
1.0016	64105.57	3.1260	3.1260	-0.0954	24.77	0.10	-0.050			
1.0017	64111.70	3.1250	3.1250	-0.0950	24.77	0.10	-0.050			
1.0018	64117.70	3.1240	3.1240	-0.0945	24.77	0.10	-0.050			
1.0019	64123.75	3.1230	3.1231	-0.0943	24.77	0.10	-0.050			
1.0020	64129.77	3.1220	3.1220	-0.0941	24.77	0.10	-0.050			
1.0021	64135.79	3.1210	3.1209	-0.0938	24.77	0.10	-0.050			
1.0022	64141.78	3.1200	3.1199	-0.0936	24.77	0.10	-0.050			
1.0023	64147.77	3.1190	3.1190	-0.0934	24.77	0.10	-0.050			
1.0024	64153.94	3.1180	3.1180	-0.0933	24.77	0.10	-0.050			
1.0025	64159.88	3.1170	3.1170	-0.0930	24.77	0.10	-0.050			
1.0026	64165.82	3.1160	3.1160	-0.0927	24.77	0.10	-0.050			
1.0027	64171.74	3.1150	3.1151	-0.0923	24.77	0.10	-0.050			
1.0028	64177.64	3.1140	3.1141	-0.0920	24.77	0.10	-0.050			
1.0029	64183.51	3.1130	3.1129	-0.0916	24.77	0.10	-0.050			
1.0030	64189.38	3.1120	3.1119	-0.0913	24.77	0.10	-0.050			
1.0031	64195.26	3.1110	3.1109	-0.0909	24.77	0.10	-0.050			
1.0031	64201.07	3.1100	3.1099	-0.0905	24.77	0.10	-0.050			
1.0032	64206.84	3.1090	3.1089	-0.0901	24.76	0.09	-0.050			
1.0033	64212.60	3.1080	3.1080	-0.0897	24.76	0.09	-0.050			
1.0034	64218.33	3.1070	3.1070	-0.0893	24.76	0.09	-0.050			
1.0035	64224.03	3.1060	3.1060	-0.0889	24.76	0.09	-0.050			
1.0036	64229.72	3.1050	3.1051	-0.0886	24.76	0.09	-0.050			
1.0037	64235.34	3.1040	3.1041	-0.0882	24.76	0.09	-0.050			
1.0038	64240.98	3.1030	3.1030	-0.0879	24.76	0.09	-0.050			
1.0039	64246.59	3.1020	3.1020	-0.0875	24.77	0.10	-0.050			
1.0039	64252.17	3.1010	3.1010	-0.0871	24.77	0.10	-0.050			
1.0040	64257.74	3.1000	3.1000	-0.0868	24.77	0.10	-0.050			
1.0041	64263.28	3.0990	3.0990	-0.0864	24.77	0.10	-0.050			
1.0042	64268.80	3.0980	3.0981	-0.0860	24.78	0.11	-0.050			
1.0043	64274.31	3.0970	3.0971	-0.0857	24.78	0.11	-0.050			
1.0044	64279.58	3.0960	3.0962	-0.0857	24.78	0.11	-0.050			
1.0045	64285.05	3.0950	3.0951	-0.0854	24.78	0.11	-0.050			
1.0045	64290.51	3.0940	3.0938	-0.0852	24.78	0.11	-0.050			
1.0046	64295.96	3.0930	3.0928	-0.0850	24.78	0.11	-0.050			
1.0047	64301.39	3.0920	3.0919	-0.0847	24.78	0.11	-0.050			
1.0048	64306.57	3.0910	3.0909	-0.0842	24.78	0.11	-0.050			
1.0049	64311.95	3.0900	3.0899	-0.0841	24.78	0.11	-0.050			
1.0050	64317.37	3.0890	3.0889	-0.0840	24.78	0.11	-0.050			
1.0050	64322.74	3.0880	3.0878	-0.0838	24.78	0.11	-0.050			
1.0051	64328.10	3.0870	3.0869	-0.0837	24.78	0.11	-0.050			
1.0052	64333.46	3.0860	3.0859	-0.0836	24.78	0.11	-0.050			
1.0053	64338.80	3.0850	3.0851	-0.0835	24.78	0.11	-0.050			
1.0054	64344.14	3.0840	3.0840	-0.0833	24.78	0.11	-0.050			
1.0055	64349.47	3.0830	3.0830	-0.0831	24.78	0.11	-0.050			
1.0055	64354.79	3.0820	3.0820	-0.0830	24.78	0.11	-0.050			
1.0056	64360.09	3.0810	3.0810	-0.0829	24.78	0.11	-0.050			
1.0057	64365.40	3.0800	3.0800	-0.0828	24.78	0.11	-0.050			
1.0058	64370.69	3.0790	3.0790	-0.0827	24.78	0.11	-0.050			
1.0059	64375.98	3.0780	3.0781	-0.0825	24.78	0.11	-0.050			
1.0060	64381.25	3.0770	3.0771	-0.0824	24.78	0.11	-0.050			
1.0060	64386.78	3.0760	3.0760	-0.0821	24.78	0.11	-0.050			
1.0061	64392.03	3.0750	3.0749	-0.0818	24.78	0.11	-0.050			
1.0062	64397.26	3.0740	3.0739	-0.0815	24.78	0.11	-0.050			
1.0063	64402.46	3.0730	3.0729	-0.0812	24.78	0.11	-0.050			
1.0064	64407.65	3.0720	3.0720	-0.0809	24.78	0.11	-0.050			
1.0065	64412.82	3.0710	3.0710	-0.0806	24.78	0.11	-0.050			
1.0065	64417.97	3.0700	3.0700	-0.0803	24.79	0.12	-0.050			
1.0066	64423.22	3.0690	3.0690	-0.0801	24.79	0.12	-0.050			
1.0067	64428.08	3.0680	3.0681	-0.0802	24.79	0.12	-0.050			
1.0068	64433.21	3.0670	3.0670	-0.0800	24.79	0.12	-0.050			
1.0068	64438.32	3.0660	3.0659	-0.0798	24.79	0.12	-0.050			
1.0069	64443.42	3.0650	3.0653	-0.0796	24.79	0.12	-0.050			
1.0070	64448.45	3.0640	3.0640	-0.0793	24.79	0.12	-0.050			
1.0071	64453.52	3.0630	3.0629	-0.0792	24.79	0.12	-0.050			
1.0072	64458.65	3.0620	3.0619	-0.0789	24.79	0.12	-0.050			
1.0072	64463.69	3.0610	3.0609	-0.0788	24.79	0.12	-0.050			
1.0073	64468.73	3.0600	3.0599	-0.0786	24.79	0.12	-0.050			
1.0074	64473.75	3.0590	3.0589	-0.0784	24.79	0.12	-0.050			
1.0075	64478.76	3.0580	3.0579	-0.0782	24.79	0.12	-0.050			
1.0076	64483.76	3.0570	3.0569	-0.0780	24.79	0.12	-0.050			
1.0076	64488.60	3.0560	3.0559	-0.0777	24.79	0.12	-0.050			
1.0077	64493.57	3.0550	3.0553	-0.0776	24.79	0.12	-0.050			
1.0078	64498.75	3.0540	3.0541	-0.0770	24.79	0.12	-0.050			
1.0079	64503.67	3.0530	3.0529	-0.0768	24.79	0.12	-0.050			
1.0079	64508.57	3.0520	3.0519	-0.0765	24.79	0.12	-0.050			
1.0080	64513.46	3.0510	3.0510	-0.0763	24.79	0.12	-0.050			
1.0081	64518.33	3.0500	3.0500	-0.0760	24.79	0.12	-0.050			
1.0082	64523.19	3.0490	3.0490	-0.0758	24.79	0.12	-0.050			
1.0083	64528.43	3.0480	3.0479	-0.0758	24.79	0.12	-0.050			
1.0083	64533.04	3.0470	3.0469	-0.0757	24.79	0.12	-0.050			
1.0084	64537.88	3.0460	3.0459	-0.0754	24.79	0.12	-0.050			
1.0085	64542.69	3.0450	3.0450	-0.0750	24.79	0.12	-0.050			
1.0086	64547.48	3.0440	3.0444	-0.0747	24.79	0.12	-0.050			
1.0086	64552.25	3.0430	3.0431	-0.0744	24.79	0.12	-0.050			
1.0087	64556.82	3.0420	3.0419	-0.0737	24.79	0.12	-0.050			
1.0088	64561.53	3.0410	3.0409	-0.0735	24.79	0.12	-0.050			
1.0088	64566.23	3.0400	3.0400	-0.0733	24.79	0.12	-0.050			
1.0089	64570.80	3.0390	3.0390	-0.0733	24.79	0.12	-0.050			
1.0090	64575.48	3.0380	3.0379	-0.0732	24.80	0.13	-0.050			
1.0091	64580.16	3.0370	3.0370	-0.0730	24.80	0.13	-0.050			
1.0091	64584.83	3.0360	3.0360	-0.0728	24.80	0.13	-0.050			
1.0092	64589.48	3.0350	3.0350	-0.0727	24.80	0.13	-0.050			
1.0093	64593.95	3.0340	3.0340	-0.0723	24.80	0.13	-0.050			
1.0094	64598.58	3.0330	3.0331	-0.0723	24.80	0.13	-0.050			
1.0094	64603.20	3.0320	3.0321	-0.0722	24.80	0.13	-0.050			
1.0095	64608.00	3.0310	3.0309	-0.0717	24.80	0.13	-0.050			
1.0096	64612.58	3.0300	3.0299	-0.0716	24.80	0.13	-0.050			
1.0096	64617.16	3.0290	3.0290	-0.0714	24.80	0.13	-0.050			
1.0097	64621.72	3.0280	3.0280	-0.0712	24.80	0.13	-0.050			
1.0098	64626.42	3.0270	3.0269	-0.0713	24.80	0.13	-0.050			
1.0099	64630.97	3.0260	3.0259	-0.0710	24.80	0.13	-0.050			
1.0099	64635.51	3.0250	3.0249	-0.0708	24.80	0.13	-0.050			
1.0100	64639.89	3.0240	3.0239	-0.0708	24.80	0.13	-0.050			
1.0101	64644.41	3.0230	3.0230	-0.0706	24.80	0.13	-0.050			
1.0101	64648.93	3.0220	3.0221	-0.0705	24.80	0.13	-0.050			
1.0102	64653.43	3.0210	3.0214	-0.0703	24.80	0.13	-0.050			
1.0103	64657.93	3.0200	3.0202	-0.0701	24.80	0.13	-0.050			
1.0103	64662.38	3.0190	3.0189	-0.0699	24.80	0.13	-0.050			
1.0104	64666.85	3.0180	3.0180	-0.0698	24.80	0.13	-0.050			
1.0105	64671.31	3.0170	3.0170	-0.0696	24.80	0.13	-0.050			
1.0106	64675.87	3.0160	3.0160	-0.0692	24.80	0.13	-0.050			
1.0106	64680.29	3.0150	3.0149	-0.0690	24.80	0.13	-0.050			
1.0107	64684.70	3.0140	3.0139	-0.0688	24.80	0.13	-0.050			
1.0108	64689.10	3.0130	3.0129	-0.0686	24.80	0.13	-0.050			
1.0108	64693.48	3.0120	3.0119	-0.0684	24.80	0.13	-0.050			
1.0109	64697.79	3.0110	3.0109	-0.0681	24.80	0.13	-0.050			
1.0110	64702.14	3.0100	3.0100	-0.0679	24.80	0.13	-0.050			
1.0110	64706.48	3.0090	3.0092	-0.0678	24.80	0.13	-0.050			
1.0111	64710.81	3.0080	3.0081	-0.0676	24.80	0.13	-0.050			
1.0112	64715.13	3.0070	3.0071	-0.0674	24.80	0.13	-0.050			
1.0112	64719.44	3.0060	3.0060	-0.0672	24.80	0.13	-0.050			
1.0113	64723.74	3.0050	3.0051	-0.0670	24.80	0.13	-0.050			
1.0114	64728.30	3.0040	3.0040	-0.0655	24.80	0.13	-0.050			
1.0114	64732.48	3.0030	3.0031	-0.0649	24.80	0.13	-0.050			
1.0115	64736.60	3.0020	3.0020	-0.0642	24.80	0.13	-0.050			
1.0116	64740.69	3.0010	3.0010	-0.0636	24.80	0.13	-0.050			
