Ah_balance (normalized)	Ah_balance (mAh)	Voltage - fit (V)	Voltage -  interpolate (V)	dQ/dV (1/V)	Temperature (°C)	Temperature - diff (°C)	Current (C)	R_DC 0ms (mOhm)	R_DC 50ms (mOhm)	R_DC 50 ms PEC (mOhm)
0.0003	20.43	4.1850	4.1849	-0.4323	24.60	0.00	-0.050			
0.0008	49.14	4.1840	4.1837	-0.4723	24.60	0.00	-0.050			
0.0013	80.63	4.1830	4.1827	-0.5034	24.60	0.00	-0.050			
0.0018	114.16	4.1820	4.1818	-0.5292	24.60	0.00	-0.050			
0.0023	149.30	4.1810	4.1808	-0.5513	24.60	-0.00	-0.050			
0.0029	186.11	4.1800	4.1798	-0.5712	24.58	-0.02	-0.050			
0.0035	223.76	4.1790	4.1791	-0.5881	24.59	-0.01	-0.050			
0.0041	262.63	4.1780	4.1781	-0.6033	24.60	-0.00	-0.050			
0.0047	302.24	4.1770	4.1771	-0.6170	24.59	-0.01	-0.050			
0.0054	343.22	4.1760	4.1760	-0.6285	24.57	-0.03	-0.050			
0.0060	384.21	4.1750	4.1750	-0.6398	24.57	-0.03	-0.050			
0.0067	426.03	4.1740	4.1741	-0.6498	24.57	-0.03	-0.050			
0.0074	471.01	4.1730	4.1729	-0.6651	24.56	-0.04	-0.050			
0.0080	514.43	4.1720	4.1719	-0.6735	24.56	-0.04	-0.050			
0.0087	558.07	4.1710	4.1710	-0.6810	24.56	-0.04	-0.050			
0.0094	602.34	4.1700	4.1700	-0.6860	24.57	-0.03	-0.050			
0.0101	646.23	4.1690	4.1690	-0.6912	24.58	-0.02	-0.050			
0.0108	690.97	4.1680	4.1680	-0.6972	24.58	-0.02	-0.050			
0.0115	736.15	4.1670	4.1671	-0.7025	24.58	-0.02	-0.050			
0.0122	781.78	4.1660	4.1660	-0.7074	24.57	-0.03	-0.050			
0.0129	827.58	4.1650	4.1650	-0.7115	24.59	-0.01	-0.050			
0.0136	873.26	4.1640	4.1641	-0.7158	24.57	-0.03	-0.050			
0.0144	919.38	4.1630	4.1630	-0.7203	24.56	-0.04	-0.050			
0.0151	965.65	4.1620	4.1620	-0.7240	24.56	-0.04	-0.050			
0.0158	1012.28	4.1610	4.1610	-0.7272	24.56	-0.04	-0.050			
0.0165	1058.98	4.1600	4.1600	-0.7309	24.57	-0.03	-0.050			
0.0173	1105.93	4.1590	4.1591	-0.7346	24.56	-0.04	-0.050			
0.0180	1152.96	4.1580	4.1580	-0.7376	24.56	-0.04	-0.050			
0.0188	1200.39	4.1570	4.1571	-0.7408	24.56	-0.04	-0.050			
0.0195	1247.98	4.1560	4.1560	-0.7432	24.57	-0.03	-0.050			
0.0202	1295.65	4.1550	4.1551	-0.7465	24.56	-0.04	-0.050	0.598	0.632	
0.0210	1343.36	4.1540	4.1540	-0.7495	24.56	-0.04	-0.050			
0.0217	1391.58	4.1530	4.1530	-0.7525	24.55	-0.05	-0.050			
0.0225	1439.70	4.1520	4.1520	-0.7553	24.55	-0.05	-0.050			
0.0233	1488.18	4.1510	4.1510	-0.7588	24.54	-0.06	-0.050			
0.0240	1537.16	4.1500	4.1500	-0.7610	24.54	-0.06	-0.050			
0.0248	1585.90	4.1490	4.1490	-0.7635	24.54	-0.06	-0.050			
0.0255	1635.08	4.1480	4.1480	-0.7660	24.54	-0.06	-0.050			
0.0263	1684.36	4.1470	4.1470	-0.7691	24.56	-0.04	-0.050			
0.0271	1733.82	4.1460	4.1459	-0.7716	24.56	-0.04	-0.050			
0.0279	1783.19	4.1450	4.1451	-0.7738	24.54	-0.06	-0.050			
0.0286	1832.80	4.1440	4.1439	-0.7756	24.55	-0.05	-0.050			
0.0294	1882.44	4.1430	4.1430	-0.7776	24.56	-0.04	-0.050			
0.0302	1932.26	4.1420	4.1421	-0.7803	24.55	-0.05	-0.050			
0.0310	1982.48	4.1410	4.1410	-0.7821	24.53	-0.07	-0.050			
0.0318	2032.68	4.1400	4.1400	-0.7841	24.54	-0.06	-0.050			
0.0325	2083.01	4.1390	4.1390	-0.7854	24.54	-0.06	-0.050			
0.0333	2133.44	4.1380	4.1380	-0.7875	24.53	-0.07	-0.050			
0.0341	2184.05	4.1370	4.1370	-0.7887	24.54	-0.06	-0.050			
0.0349	2234.61	4.1360	4.1360	-0.7902	24.53	-0.07	-0.050			
0.0357	2285.12	4.1350	4.1350	-0.7912	24.54	-0.06	-0.050			
0.0365	2336.06	4.1340	4.1340	-0.7927	24.54	-0.06	-0.050			
0.0373	2386.70	4.1330	4.1330	-0.7938	24.56	-0.04	-0.050			
0.0381	2437.71	4.1320	4.1320	-0.7952	24.53	-0.07	-0.050			
0.0389	2488.61	4.1310	4.1310	-0.7966	24.55	-0.05	-0.050			
0.0397	2539.68	4.1300	4.1300	-0.7976	24.54	-0.06	-0.050	0.008	0.569	
0.0405	2590.96	4.1290	4.1291	-0.7992	24.54	-0.06	-0.050			
0.0413	2641.83	4.1280	4.1280	-0.8001	24.54	-0.06	-0.050			
0.0421	2693.03	4.1270	4.1270	-0.8008	24.55	-0.05	-0.050			
0.0429	2744.10	4.1260	4.1260	-0.8025	24.56	-0.04	-0.050			
0.0437	2795.52	4.1250	4.1250	-0.8040	24.56	-0.04	-0.050			
0.0445	2846.97	4.1240	4.1240	-0.8052	24.55	-0.05	-0.050			
0.0453	2898.65	4.1230	4.1230	-0.8057	24.56	-0.04	-0.050			
0.0461	2950.60	4.1220	4.1220	-0.8067	24.55	-0.05	-0.050			
0.0469	3002.34	4.1210	4.1210	-0.8069	24.55	-0.05	-0.050			
0.0477	3054.13	4.1200	4.1200	-0.8084	24.54	-0.06	-0.050			
0.0485	3105.76	4.1190	4.1190	-0.8097	24.55	-0.05	-0.050			
0.0493	3157.80	4.1180	4.1180	-0.8107	24.55	-0.05	-0.050			
0.0502	3209.64	4.1170	4.1170	-0.8114	24.55	-0.05	-0.050			
0.0510	3261.36	4.1160	4.1161	-0.8132	24.54	-0.06	-0.050			
0.0518	3313.27	4.1150	4.1151	-0.8140	24.55	-0.05	-0.050			
0.0526	3365.64	4.1140	4.1140	-0.8152	24.54	-0.06	-0.050			
0.0534	3417.82	4.1130	4.1130	-0.8158	24.54	-0.06	-0.050			
0.0542	3470.25	4.1120	4.1120	-0.8163	24.54	-0.06	-0.050			
0.0550	3522.55	4.1110	4.1110	-0.8171	24.54	-0.06	-0.050			
0.0559	3574.92	4.1100	4.1100	-0.8174	24.55	-0.05	-0.050			
0.0567	3627.25	4.1090	4.1090	-0.8180	24.55	-0.05	-0.050			
0.0575	3679.64	4.1080	4.1080	-0.8183	24.55	-0.05	-0.050			
0.0583	3731.89	4.1070	4.1071	-0.8192	24.55	-0.05	-0.050			
0.0591	3784.17	4.1060	4.1061	-0.8205	24.54	-0.06	-0.050			
0.0600	3836.85	4.1050	4.1051	-0.8222	24.55	-0.05	-0.050			
0.0608	3889.53	4.1040	4.1040	-0.8235	24.54	-0.06	-0.050			
0.0616	3942.21	4.1030	4.1030	-0.8253	24.54	-0.06	-0.050			
0.0624	3994.93	4.1020	4.1020	-0.8266	24.55	-0.05	-0.050			
0.0632	4047.79	4.1010	4.1011	-0.8275	24.55	-0.05	-0.050			
0.0641	4100.66	4.1000	4.1000	-0.8287	24.56	-0.04	-0.050			
0.0649	4153.55	4.0990	4.0990	-0.8291	24.56	-0.04	-0.050			
0.0657	4206.79	4.0980	4.0979	-0.8304	24.56	-0.04	-0.050			
0.0666	4260.06	4.0970	4.0970	-0.8315	24.54	-0.06	-0.050			
0.0674	4313.13	4.0960	4.0960	-0.8325	24.53	-0.07	-0.050			
0.0682	4366.74	4.0950	4.0950	-0.8337	24.54	-0.06	-0.050			
0.0691	4420.27	4.0940	4.0940	-0.8357	24.54	-0.06	-0.050			
0.0699	4474.08	4.0930	4.0930	-0.8370	24.55	-0.05	-0.050			
0.0707	4527.83	4.0920	4.0921	-0.8377	24.56	-0.04	-0.050			
0.0716	4581.73	4.0910	4.0910	-0.8384	24.55	-0.05	-0.050			
0.0724	4635.55	4.0900	4.0901	-0.8388	24.55	-0.05	-0.050			
0.0733	4689.02	4.0890	4.0890	-0.8399	24.54	-0.06	-0.050			
0.0741	4742.78	4.0880	4.0880	-0.8400	24.54	-0.06	-0.050			
0.0749	4796.35	4.0870	4.0870	-0.8402	24.55	-0.05	-0.050			
0.0758	4849.96	4.0860	4.0860	-0.8407	24.55	-0.05	-0.050			
0.0766	4903.72	4.0850	4.0851	-0.8414	24.57	-0.03	-0.050			
0.0775	4957.65	4.0840	4.0839	-0.8420	24.57	-0.03	-0.050			
0.0783	5011.52	4.0830	4.0830	-0.8432	24.57	-0.03	-0.050			
0.0791	5065.49	4.0820	4.0820	-0.8430	24.55	-0.05	-0.050			
0.0800	5119.58	4.0810	4.0810	-0.8445	24.56	-0.04	-0.050	0.559	0.664	
0.0808	5173.79	4.0800	4.0800	-0.8448	24.56	-0.04	-0.050			
0.0817	5227.77	4.0790	4.0790	-0.8458	24.55	-0.05	-0.050			
0.0825	5281.91	4.0780	4.0781	-0.8466	24.55	-0.05	-0.050			
0.0834	5336.16	4.0770	4.0771	-0.8476	24.55	-0.05	-0.050			
0.0842	5390.41	4.0760	4.0760	-0.8481	24.55	-0.05	-0.050			
0.0851	5444.78	4.0750	4.0750	-0.8485	24.56	-0.04	-0.050			
0.0859	5499.11	4.0740	4.0740	-0.8498	24.56	-0.04	-0.050			
0.0868	5553.41	4.0730	4.0730	-0.8502	24.56	-0.04	-0.050			
0.0876	5608.05	4.0720	4.0720	-0.8512	24.56	-0.04	-0.050			
0.0885	5662.52	4.0710	4.0711	-0.8517	24.55	-0.05	-0.050			
0.0893	5717.17	4.0700	4.0700	-0.8520	24.55	-0.05	-0.050			
0.0902	5771.47	4.0690	4.0690	-0.8522	24.55	-0.05	-0.050			
0.0910	5826.07	4.0680	4.0680	-0.8527	24.56	-0.04	-0.050			
0.0919	5880.66	4.0670	4.0670	-0.8537	24.56	-0.04	-0.050			
0.0927	5935.47	4.0660	4.0660	-0.8542	24.57	-0.03	-0.050			
0.0936	5990.02	4.0650	4.0649	-0.8550	24.57	-0.03	-0.050			
0.0944	6044.77	4.0640	4.0641	-0.8561	24.56	-0.04	-0.050			
0.0953	6099.56	4.0630	4.0631	-0.8563	24.56	-0.04	-0.050			
0.0962	6154.22	4.0620	4.0620	-0.8577	24.56	-0.04	-0.050			
0.0970	6208.98	4.0610	4.0610	-0.8586	24.54	-0.06	-0.050			
0.0979	6263.93	4.0600	4.0600	-0.8598	24.54	-0.06	-0.050			
0.0987	6318.95	4.0590	4.0589	-0.8611	24.54	-0.06	-0.050			
0.0996	6373.99	4.0580	4.0580	-0.8617	24.56	-0.04	-0.050			
0.1005	6429.23	4.0570	4.0569	-0.8627	24.56	-0.04	-0.050	0.560	0.617	
0.1013	6484.64	4.0560	4.0560	-0.8633	24.56	-0.04	-0.050			
0.1022	6539.82	4.0550	4.0550	-0.8647	24.56	-0.04	-0.050			
0.1031	6595.30	4.0540	4.0540	-0.8659	24.55	-0.05	-0.050			
0.1039	6650.85	4.0530	4.0530	-0.8666	24.54	-0.06	-0.050			
0.1048	6706.44	4.0520	4.0520	-0.8680	24.55	-0.05	-0.050			
0.1057	6762.07	4.0510	4.0511	-0.8689	24.55	-0.05	-0.050			
0.1065	6817.96	4.0500	4.0500	-0.8694	24.55	-0.05	-0.050			
0.1074	6873.74	4.0490	4.0490	-0.8693	24.54	-0.06	-0.050			
0.1083	6929.21	4.0480	4.0480	-0.8705	24.55	-0.05	-0.050			
0.1091	6985.09	4.0470	4.0470	-0.8709	24.55	-0.05	-0.050			
0.1100	7040.68	4.0460	4.0460	-0.8714	24.55	-0.05	-0.050			
0.1109	7096.60	4.0450	4.0450	-0.8716	24.55	-0.05	-0.050			
0.1118	7152.20	4.0440	4.0440	-0.8727	24.54	-0.06	-0.050			
0.1126	7208.19	4.0430	4.0429	-0.8728	24.53	-0.07	-0.050			
0.1135	7263.89	4.0420	4.0420	-0.8732	24.52	-0.08	-0.050			
0.1144	7319.67	4.0410	4.0409	-0.8739	24.53	-0.07	-0.050			
0.1152	7375.63	4.0400	4.0399	-0.8752	24.54	-0.06	-0.050			
0.1161	7431.55	4.0390	4.0390	-0.8762	24.54	-0.06	-0.050			
0.1170	7487.86	4.0380	4.0381	-0.8766	24.54	-0.06	-0.050			
0.1179	7543.98	4.0370	4.0370	-0.8776	24.52	-0.08	-0.050			
0.1188	7600.22	4.0360	4.0359	-0.8777	24.53	-0.07	-0.050			
0.1196	7656.27	4.0350	4.0349	-0.8781	24.53	-0.07	-0.050			
0.1205	7712.79	4.0340	4.0340	-0.8786	24.54	-0.06	-0.050	0.553	0.647	
0.1214	7769.00	4.0330	4.0330	-0.8799	24.53	-0.07	-0.050			
0.1223	7825.19	4.0320	4.0320	-0.8806	24.54	-0.06	-0.050			
0.1231	7881.59	4.0310	4.0310	-0.8819	24.54	-0.06	-0.050			
0.1240	7937.99	4.0300	4.0300	-0.8832	24.53	-0.07	-0.050			
0.1249	7994.50	4.0290	4.0291	-0.8838	24.54	-0.06	-0.050			
0.1258	8051.18	4.0280	4.0279	-0.8848	24.55	-0.05	-0.050			
0.1267	8107.75	4.0270	4.0270	-0.8858	24.54	-0.06	-0.050			
0.1276	8164.25	4.0260	4.0259	-0.8872	24.54	-0.06	-0.050			
0.1285	8220.98	4.0250	4.0250	-0.8883	24.53	-0.07	-0.050			
0.1293	8277.58	4.0240	4.0240	-0.8900	24.52	-0.08	-0.050			
0.1302	8334.75	4.0230	4.0231	-0.8915	24.52	-0.08	-0.050			
0.1311	8391.83	4.0220	4.0219	-0.8922	24.53	-0.07	-0.050			
0.1320	8449.12	4.0210	4.0211	-0.8935	24.53	-0.07	-0.050			
0.1329	8506.34	4.0200	4.0200	-0.8948	24.52	-0.08	-0.050			
0.1338	8563.58	4.0190	4.0190	-0.8961	24.53	-0.07	-0.050			
0.1347	8621.22	4.0180	4.0180	-0.8978	24.54	-0.06	-0.050			
0.1356	8678.87	4.0170	4.0169	-0.8988	24.57	-0.03	-0.050			
0.1365	8736.75	4.0160	4.0161	-0.8994	24.58	-0.02	-0.050			
0.1374	8794.39	4.0150	4.0150	-0.9002	24.66	0.06	-0.050			
0.1383	8852.02	4.0140	4.0141	-0.9010	24.67	0.07	-0.050			
0.1392	8909.75	4.0130	4.0130	-0.9007	24.58	-0.02	-0.050			
0.1401	8967.48	4.0120	4.0121	-0.9020	24.52	-0.08	-0.050	0.401	0.602	
0.1410	9025.18	4.0110	4.0110	-0.9022	24.51	-0.09	-0.050			
0.1419	9083.25	4.0100	4.0100	-0.9022	24.53	-0.07	-0.050			
0.1428	9140.84	4.0090	4.0090	-0.9031	24.53	-0.07	-0.050			
0.1437	9198.49	4.0080	4.0080	-0.9040	24.54	-0.06	-0.050			
0.1446	9256.19	4.0070	4.0070	-0.9051	24.54	-0.06	-0.050			
0.1455	9313.61	4.0060	4.0060	-0.9059	24.56	-0.04	-0.050			
0.1464	9371.69	4.0050	4.0050	-0.9074	24.55	-0.05	-0.050			
0.1473	9429.69	4.0040	4.0041	-0.9086	24.56	-0.04	-0.050			
0.1483	9488.05	4.0030	4.0030	-0.9098	24.56	-0.04	-0.050			
0.1492	9546.26	4.0020	4.0020	-0.9110	24.57	-0.03	-0.050			
0.1501	9604.38	4.0010	4.0009	-0.9125	24.58	-0.02	-0.050			
0.1510	9662.77	4.0000	4.0000	-0.9139	24.58	-0.02	-0.050			
0.1519	9721.28	3.9990	3.9990	-0.9155	24.58	-0.02	-0.050			
0.1528	9780.07	3.9980	3.9980	-0.9174	24.56	-0.04	-0.050			
0.1537	9839.08	3.9970	3.9969	-0.9185	24.57	-0.03	-0.050			
0.1547	9898.02	3.9960	3.9961	-0.9201	24.57	-0.03	-0.050			
0.1556	9957.19	3.9950	3.9950	-0.9205	24.56	-0.04	-0.050			
0.1565	10016.29	3.9940	3.9941	-0.9214	24.56	-0.04	-0.050			
0.1574	10075.39	3.9930	3.9929	-0.9227	24.57	-0.03	-0.050			
0.1583	10134.37	3.9920	3.9920	-0.9238	24.57	-0.03	-0.050			
0.1593	10193.40	3.9910	3.9910	-0.9254	24.57	-0.03	-0.050			
0.1602	10252.69	3.9900	3.9899	-0.9267	24.58	-0.02	-0.050	0.496	0.592	
0.1611	10311.85	3.9890	3.9889	-0.9278	24.56	-0.04	-0.050			
0.1620	10371.09	3.9880	3.9880	-0.9279	24.57	-0.03	-0.050			
0.1630	10430.49	3.9870	3.9870	-0.9297	24.56	-0.04	-0.050			
0.1639	10489.85	3.9860	3.9860	-0.9308	24.56	-0.04	-0.050			
0.1648	10549.59	3.9850	3.9849	-0.9323	24.56	-0.04	-0.050			
0.1658	10609.31	3.9840	3.9839	-0.9341	24.55	-0.05	-0.050			
0.1667	10669.30	3.9830	3.9830	-0.9348	24.56	-0.04	-0.050			
0.1676	10729.33	3.9820	3.9821	-0.9353	24.56	-0.04	-0.050			
0.1686	10789.05	3.9810	3.9811	-0.9359	24.57	-0.03	-0.050			
0.1695	10849.15	3.9800	3.9800	-0.9372	24.58	-0.02	-0.050			
0.1705	10909.38	3.9790	3.9790	-0.9390	24.58	-0.02	-0.050			
0.1714	10969.38	3.9780	3.9780	-0.9399	24.56	-0.04	-0.050			
0.1723	11029.80	3.9770	3.9769	-0.9411	24.56	-0.04	-0.050			
0.1733	11090.11	3.9760	3.9760	-0.9419	24.56	-0.04	-0.050			
0.1742	11150.38	3.9750	3.9751	-0.9433	24.57	-0.03	-0.050			
0.1752	11210.74	3.9740	3.9741	-0.9434	24.57	-0.03	-0.050			
0.1761	11270.93	3.9730	3.9729	-0.9434	24.56	-0.04	-0.050			
0.1771	11331.53	3.9720	3.9720	-0.9438	24.57	-0.03	-0.050			
0.1780	11391.75	3.9710	3.9710	-0.9444	24.56	-0.04	-0.050			
0.1789	11452.32	3.9700	3.9700	-0.9447	24.56	-0.04	-0.050			
0.1799	11512.97	3.9690	3.9690	-0.9451	24.56	-0.04	-0.050	0.477	0.590	
0.1808	11573.59	3.9680	3.9680	-0.9462	24.57	-0.03	-0.050			
0.1818	11633.83	3.9670	3.9670	-0.9466	24.57	-0.03	-0.050			
0.1827	11694.53	3.9660	3.9660	-0.9473	24.58	-0.02	-0.050			
0.1837	11755.08	3.9650	3.9650	-0.9484	24.56	-0.04	-0.050			
0.1846	11815.62	3.9640	3.9641	-0.9509	24.58	-0.02	-0.050			
0.1856	11876.45	3.9630	3.9629	-0.9522	24.58	-0.02	-0.050			
0.1865	11937.52	3.9620	3.9619	-0.9530	24.56	-0.04	-0.050			
0.1875	11998.18	3.9610	3.9610	-0.9537	24.57	-0.03	-0.050			
0.1884	12059.39	3.9600	3.9600	-0.9546	24.55	-0.05	-0.050			
0.1894	12120.38	3.9590	3.9589	-0.9553	24.56	-0.04	-0.050			
0.1903	12181.61	3.9580	3.9580	-0.9561	24.56	-0.04	-0.050			
0.1913	12242.96	3.9570	3.9571	-0.9576	24.56	-0.04	-0.050			
0.1923	12304.18	3.9560	3.9559	-0.9588	24.57	-0.03	-0.050			
0.1932	12365.72	3.9550	3.9550	-0.9597	24.57	-0.03	-0.050			
0.1942	12427.46	3.9540	3.9541	-0.9615	24.57	-0.03	-0.050			
0.1951	12488.95	3.9530	3.9530	-0.9632	24.56	-0.04	-0.050			
0.1961	12550.66	3.9520	3.9520	-0.9641	24.56	-0.04	-0.050			
0.1971	12612.31	3.9510	3.9510	-0.9652	24.55	-0.05	-0.050			
0.1980	12674.07	3.9500	3.9500	-0.9673	24.56	-0.04	-0.050			
0.1990	12735.87	3.9490	3.9490	-0.9686	24.57	-0.03	-0.050			
0.2000	12797.73	3.9480	3.9479	-0.9690	24.56	-0.04	-0.050	0.488	0.623	
0.2009	12859.97	3.9470	3.9469	-0.9698	24.56	-0.04	-0.050			
0.2019	12922.21	3.9460	3.9460	-0.9701	24.57	-0.03	-0.050			
0.2029	12984.18	3.9450	3.9450	-0.9704	24.56	-0.04	-0.050			
0.2038	13046.29	3.9440	3.9440	-0.9710	24.55	-0.05	-0.050			
0.2048	13108.91	3.9430	3.9430	-0.9721	24.56	-0.04	-0.050			
0.2058	13171.39	3.9420	3.9420	-0.9736	24.56	-0.04	-0.050			
0.2068	13233.74	3.9410	3.9410	-0.9744	24.56	-0.04	-0.050			
0.2078	13296.26	3.9400	3.9400	-0.9751	24.57	-0.03	-0.050			
0.2087	13358.59	3.9390	3.9390	-0.9756	24.56	-0.04	-0.050			
0.2097	13421.15	3.9380	3.9379	-0.9760	24.58	-0.02	-0.050			
0.2107	13483.57	3.9370	3.9369	-0.9763	24.57	-0.03	-0.050			
0.2117	13546.02	3.9360	3.9359	-0.9764	24.57	-0.03	-0.050			
0.2126	13608.49	3.9350	3.9350	-0.9774	24.56	-0.04	-0.050			
0.2136	13670.74	3.9340	3.9340	-0.9782	24.56	-0.04	-0.050			
0.2146	13733.04	3.9330	3.9331	-0.9788	24.56	-0.04	-0.050			
0.2156	13795.45	3.9320	3.9320	-0.9802	24.56	-0.04	-0.050			
0.2165	13858.05	3.9310	3.9310	-0.9818	24.56	-0.04	-0.050			
0.2175	13920.85	3.9300	3.9300	-0.9826	24.56	-0.04	-0.050			
0.2185	13983.95	3.9290	3.9290	-0.9842	24.56	-0.04	-0.050			
0.2195	14047.38	3.9280	3.9280	-0.9860	24.55	-0.05	-0.050			
0.2205	14110.73	3.9270	3.9269	-0.9863	24.56	-0.04	-0.050			
0.2215	14174.17	3.9260	3.9259	-0.9873	24.56	-0.04	-0.050			
0.2225	14237.27	3.9250	3.9250	-0.9877	24.55	-0.05	-0.050			
0.2234	14300.66	3.9240	3.9240	-0.9883	24.55	-0.05	-0.050			
0.2244	14364.30	3.9230	3.9230	-0.9884	24.56	-0.04	-0.050			
0.2254	14427.74	3.9220	3.9220	-0.9891	24.56	-0.04	-0.050			
0.2264	14490.87	3.9210	3.9210	-0.9893	24.55	-0.05	-0.050			
0.2274	14554.07	3.9200	3.9200	-0.9902	24.56	-0.04	-0.050			
0.2284	14617.59	3.9190	3.9191	-0.9903	24.56	-0.04	-0.050			
0.2294	14680.74	3.9180	3.9180	-0.9912	24.56	-0.04	-0.050			
0.2304	14743.98	3.9170	3.9170	-0.9921	24.56	-0.04	-0.050			
0.2314	14807.53	3.9160	3.9160	-0.9931	24.56	-0.04	-0.050			
0.2324	14870.71	3.9150	3.9150	-0.9929	24.56	-0.04	-0.050			
0.2333	14934.20	3.9140	3.9140	-0.9928	24.56	-0.04	-0.050			
0.2343	14997.81	3.9130	3.9129	-0.9930	24.57	-0.03	-0.050			
0.2353	15061.31	3.9120	3.9119	-0.9941	24.56	-0.04	-0.050			
0.2363	15124.78	3.9110	3.9110	-0.9963	24.55	-0.05	-0.050			
0.2373	15188.68	3.9100	3.9100	-0.9978	24.56	-0.04	-0.050			
0.2383	15252.71	3.9090	3.9090	-0.9990	24.56	-0.04	-0.050			
0.2393	15317.08	3.9080	3.9080	-0.9999	24.56	-0.04	-0.050			
0.2403	15381.09	3.9070	3.9071	-1.0012	24.56	-0.04	-0.050	0.288	0.573	
0.2413	15445.22	3.9060	3.9060	-1.0023	24.56	-0.04	-0.050			
0.2423	15509.08	3.9050	3.9050	-1.0040	24.56	-0.04	-0.050			
0.2433	15573.35	3.9040	3.9040	-1.0049	24.56	-0.04	-0.050			
0.2443	15638.00	3.9030	3.9030	-1.0060	24.56	-0.04	-0.050			
0.2453	15702.32	3.9020	3.9020	-1.0064	24.56	-0.04	-0.050			
0.2464	15766.93	3.9010	3.9011	-1.0062	24.56	-0.04	-0.050			
0.2474	15831.35	3.9000	3.9000	-1.0071	24.55	-0.05	-0.050			
0.2484	15896.28	3.8990	3.8990	-1.0069	24.56	-0.04	-0.050			
0.2494	15960.70	3.8980	3.8979	-1.0068	24.55	-0.05	-0.050			
0.2504	16025.45	3.8970	3.8970	-1.0070	24.56	-0.04	-0.050			
0.2514	16089.99	3.8960	3.8960	-1.0069	24.56	-0.04	-0.050			
0.2524	16154.69	3.8950	3.8950	-1.0074	24.57	-0.03	-0.050			
0.2534	16219.03	3.8940	3.8941	-1.0075	24.58	-0.02	-0.050			
0.2544	16283.52	3.8930	3.8928	-1.0069	24.56	-0.04	-0.050			
0.2554	16347.61	3.8920	3.8921	-1.0064	24.57	-0.03	-0.050			
0.2564	16411.74	3.8910	3.8910	-1.0071	24.54	-0.06	-0.050			
0.2574	16476.00	3.8900	3.8901	-1.0084	24.55	-0.05	-0.050			
0.2584	16540.30	3.8890	3.8889	-1.0092	24.55	-0.05	-0.050			
0.2595	16604.94	3.8880	3.8880	-1.0100	24.55	-0.05	-0.050			
0.2605	16668.98	3.8870	3.8869	-1.0102	24.54	-0.06	-0.050	0.578	0.612	
0.2615	16733.64	3.8860	3.8860	-1.0112	24.54	-0.06	-0.050			
0.2625	16798.14	3.8850	3.8850	-1.0122	24.55	-0.05	-0.050			
0.2635	16863.52	3.8840	3.8840	-1.0133	24.53	-0.07	-0.050			
0.2645	16928.34	3.8830	3.8829	-1.0151	24.54	-0.06	-0.050			
0.2655	16993.26	3.8820	3.8820	-1.0170	24.56	-0.04	-0.050			
0.2665	17058.90	3.8810	3.8809	-1.0179	24.55	-0.05	-0.050			
0.2676	17123.90	3.8800	3.8801	-1.0192	24.54	-0.06	-0.050			
0.2686	17189.44	3.8790	3.8790	-1.0216	24.56	-0.04	-0.050			
0.2696	17254.74	3.8780	3.8780	-1.0226	24.56	-0.04	-0.050			
0.2706	17320.20	3.8770	3.8770	-1.0240	24.56	-0.04	-0.050			
0.2717	17385.86	3.8760	3.8760	-1.0245	24.56	-0.04	-0.050			
0.2727	17451.46	3.8750	3.8750	-1.0255	24.56	-0.04	-0.050			
0.2737	17517.08	3.8740	3.8739	-1.0263	24.55	-0.05	-0.050			
0.2747	17582.99	3.8730	3.8730	-1.0274	24.54	-0.06	-0.050			
0.2758	17648.59	3.8720	3.8721	-1.0277	24.54	-0.06	-0.050			
0.2768	17714.37	3.8710	3.8709	-1.0277	24.54	-0.06	-0.050			
0.2778	17780.20	3.8700	3.8700	-1.0279	24.56	-0.04	-0.050			
0.2789	17846.44	3.8690	3.8690	-1.0287	24.55	-0.05	-0.050			
0.2799	17912.44	3.8680	3.8679	-1.0287	24.56	-0.04	-0.050	0.440	0.633	
0.2809	17978.43	3.8670	3.8670	-1.0288	24.56	-0.04	-0.050			
0.2819	18044.39	3.8660	3.8659	-1.0297	24.57	-0.03	-0.050			
0.2830	18110.40	3.8650	3.8649	-1.0296	24.56	-0.04	-0.050			
0.2840	18176.12	3.8640	3.8640	-1.0306	24.56	-0.04	-0.050			
0.2850	18241.68	3.8630	3.8630	-1.0302	24.56	-0.04	-0.050			
0.2861	18307.56	3.8620	3.8620	-1.0304	24.56	-0.04	-0.050			
0.2871	18373.62	3.8610	3.8610	-1.0319	24.55	-0.05	-0.050			
0.2881	18439.17	3.8600	3.8600	-1.0313	24.55	-0.05	-0.050			
0.2891	18505.23	3.8590	3.8589	-1.0323	24.56	-0.04	-0.050			
0.2902	18571.27	3.8580	3.8580	-1.0330	24.56	-0.04	-0.050			
0.2912	18637.58	3.8570	3.8570	-1.0333	24.56	-0.04	-0.050			
0.2922	18703.72	3.8560	3.8559	-1.0341	24.55	-0.05	-0.050			
0.2933	18769.82	3.8550	3.8550	-1.0350	24.57	-0.03	-0.050			
0.2943	18836.23	3.8540	3.8541	-1.0358	24.57	-0.03	-0.050			
0.2954	18902.54	3.8530	3.8531	-1.0365	24.56	-0.04	-0.050			
0.2964	18969.00	3.8520	3.8520	-1.0378	24.56	-0.04	-0.050			
0.2974	19035.55	3.8510	3.8510	-1.0386	24.56	-0.04	-0.050			
0.2985	19102.15	3.8500	3.8500	-1.0396	24.57	-0.03	-0.050			
0.2995	19168.58	3.8490	3.8490	-1.0413	24.56	-0.04	-0.050			
0.3005	19235.00	3.8480	3.8480	-1.0425	24.57	-0.03	-0.050	0.445	0.577	
0.3016	19301.73	3.8470	3.8470	-1.0428	24.57	-0.03	-0.050			
0.3026	19368.05	3.8460	3.8460	-1.0446	24.56	-0.04	-0.050			
0.3037	19435.03	3.8450	3.8450	-1.0455	24.56	-0.04	-0.050			
0.3047	19501.94	3.8440	3.8440	-1.0461	24.56	-0.04	-0.050			
0.3058	19569.21	3.8430	3.8430	-1.0469	24.57	-0.03	-0.050			
0.3068	19636.49	3.8420	3.8419	-1.0478	24.57	-0.03	-0.050			
0.3079	19703.51	3.8410	3.8409	-1.0485	24.56	-0.04	-0.050			
0.3089	19771.00	3.8400	3.8400	-1.0494	24.55	-0.05	-0.050			
0.3100	19838.35	3.8390	3.8389	-1.0490	24.56	-0.04	-0.050			
0.3110	19905.84	3.8380	3.8379	-1.0496	24.55	-0.05	-0.050			
0.3121	19973.32	3.8370	3.8370	-1.0496	24.56	-0.04	-0.050			
0.3131	20040.49	3.8360	3.8360	-1.0499	24.56	-0.04	-0.050			
0.3142	20107.37	3.8350	3.8350	-1.0499	24.56	-0.04	-0.050			
0.3152	20174.59	3.8340	3.8341	-1.0505	24.56	-0.04	-0.050			
0.3163	20241.82	3.8330	3.8330	-1.0506	24.54	-0.06	-0.050			
0.3173	20308.79	3.8320	3.8319	-1.0504	24.55	-0.05	-0.050			
0.3184	20375.94	3.8310	3.8311	-1.0502	24.56	-0.04	-0.050			
0.3194	20442.91	3.8300	3.8300	-1.0502	24.57	-0.03	-0.050			
0.3205	20509.94	3.8290	3.8290	-1.0499	24.56	-0.04	-0.050	0.554	0.616	
0.3215	20577.18	3.8280	3.8280	-1.0503	24.56	-0.04	-0.050			
0.3226	20644.38	3.8270	3.8270	-1.0509	24.56	-0.04	-0.050			
0.3236	20711.40	3.8260	3.8260	-1.0515	24.57	-0.03	-0.050			
0.3247	20778.79	3.8250	3.8250	-1.0539	24.57	-0.03	-0.050			
0.3257	20846.44	3.8240	3.8241	-1.0554	24.56	-0.04	-0.050			
0.3268	20913.76	3.8230	3.8230	-1.0563	24.56	-0.04	-0.050			
0.3278	20981.12	3.8220	3.8220	-1.0578	24.57	-0.03	-0.050			
0.3289	21048.87	3.8210	3.8210	-1.0588	24.56	-0.04	-0.050			
0.3300	21117.07	3.8200	3.8200	-1.0596	24.57	-0.03	-0.050			
0.3310	21184.97	3.8190	3.8189	-1.0609	24.55	-0.05	-0.050			
0.3321	21252.86	3.8180	3.8179	-1.0613	24.55	-0.05	-0.050			
0.3331	21320.79	3.8170	3.8169	-1.0628	24.55	-0.05	-0.050			
0.3342	21388.63	3.8160	3.8160	-1.0632	24.56	-0.04	-0.050			
0.3353	21456.81	3.8150	3.8150	-1.0640	24.55	-0.05	-0.050			
0.3363	21525.02	3.8140	3.8140	-1.0642	24.56	-0.04	-0.050			
0.3374	21593.80	3.8130	3.8130	-1.0646	24.55	-0.05	-0.050			
0.3385	21662.12	3.8120	3.8120	-1.0650	24.56	-0.04	-0.050			
0.3395	21730.42	3.8110	3.8110	-1.0646	24.56	-0.04	-0.050			
0.3406	21798.77	3.8100	3.8100	-1.0646	24.56	-0.04	-0.050			
0.3417	21867.22	3.8090	3.8090	-1.0641	24.56	-0.04	-0.050			
0.3427	21935.36	3.8080	3.8079	-1.0630	24.56	-0.04	-0.050			
0.3438	22003.16	3.8070	3.8071	-1.0623	24.56	-0.04	-0.050			
0.3449	22071.16	3.8060	3.8059	-1.0607	24.55	-0.05	-0.050			
0.3459	22138.82	3.8050	3.8050	-1.0601	24.55	-0.05	-0.050			
0.3470	22206.62	3.8040	3.8040	-1.0593	24.55	-0.05	-0.050			
0.3480	22274.62	3.8030	3.8030	-1.0580	24.56	-0.04	-0.050			
0.3491	22342.40	3.8020	3.8020	-1.0568	24.56	-0.04	-0.050			
0.3502	22410.11	3.8010	3.8010	-1.0556	24.56	-0.04	-0.050			
0.3512	22477.76	3.8000	3.8000	-1.0547	24.55	-0.05	-0.050			
0.3523	22544.96	3.7990	3.7989	-1.0527	24.56	-0.04	-0.050			
0.3533	22612.20	3.7980	3.7980	-1.0520	24.55	-0.05	-0.050			
0.3544	22679.31	3.7970	3.7970	-1.0508	24.55	-0.05	-0.050			
0.3554	22746.79	3.7960	3.7960	-1.0495	24.55	-0.05	-0.050			
0.3565	22814.06	3.7950	3.7951	-1.0485	24.56	-0.04	-0.050			
0.3575	22881.18	3.7940	3.7940	-1.0477	24.57	-0.03	-0.050			
0.3586	22948.34	3.7930	3.7929	-1.0461	24.58	-0.02	-0.050			
0.3596	23015.33	3.7920	3.7920	-1.0432	24.56	-0.04	-0.050			
0.3607	23082.20	3.7910	3.7909	-1.0407	24.56	-0.04	-0.050			
0.3617	23149.01	3.7900	3.7900	-1.0385	24.54	-0.06	-0.050			
0.3627	23215.79	3.7890	3.7890	-1.0358	24.55	-0.05	-0.050			
0.3638	23281.96	3.7880	3.7881	-1.0327	24.53	-0.07	-0.050			
0.3648	23348.13	3.7870	3.7870	-1.0295	24.53	-0.07	-0.050			
0.3659	23414.40	3.7860	3.7859	-1.0262	24.54	-0.06	-0.050			
0.3669	23479.96	3.7850	3.7850	-1.0224	24.55	-0.05	-0.050			
0.3679	23545.60	3.7840	3.7841	-1.0185	24.54	-0.06	-0.050			
0.3689	23610.87	3.7830	3.7830	-1.0154	24.54	-0.06	-0.050			
0.3699	23675.49	3.7820	3.7820	-1.0118	24.54	-0.06	-0.050			
0.3709	23740.04	3.7810	3.7810	-1.0076	24.56	-0.04	-0.050			
0.3719	23804.47	3.7800	3.7800	-1.0024	24.55	-0.05	-0.050			
0.3729	23868.35	3.7790	3.7790	-0.9982	24.56	-0.04	-0.050			
0.3739	23932.39	3.7780	3.7780	-0.9932	24.55	-0.05	-0.050			
0.3749	23995.89	3.7770	3.7770	-0.9884	24.56	-0.04	-0.050			
0.3759	24059.14	3.7760	3.7760	-0.9831	24.55	-0.05	-0.050			
0.3769	24121.86	3.7750	3.7749	-0.9781	24.54	-0.06	-0.050			
0.3779	24184.63	3.7740	3.7739	-0.9723	24.54	-0.06	-0.050			
0.3789	24246.96	3.7730	3.7730	-0.9669	24.54	-0.06	-0.050			
0.3798	24309.28	3.7720	3.7720	-0.9605	24.55	-0.05	-0.050	0.365	0.556	
0.3808	24370.71	3.7710	3.7710	-0.9542	24.56	-0.04	-0.050			
0.3817	24431.91	3.7700	3.7699	-0.9471	24.55	-0.05	-0.050			
0.3827	24492.30	3.7690	3.7690	-0.9407	24.56	-0.04	-0.050			
0.3836	24552.31	3.7680	3.7680	-0.9338	24.56	-0.04	-0.050			
0.3846	24612.09	3.7670	3.7670	-0.9268	24.55	-0.05	-0.050			
0.3855	24671.32	3.7660	3.7660	-0.9193	24.56	-0.04	-0.050			
0.3864	24729.77	3.7650	3.7651	-0.9124	24.56	-0.04	-0.050			
0.3873	24787.59	3.7640	3.7640	-0.9051	24.55	-0.05	-0.050			
0.3882	24845.02	3.7630	3.7631	-0.8978	24.56	-0.04	-0.050			
0.3891	24901.81	3.7620	3.7620	-0.8915	24.56	-0.04	-0.050			
0.3900	24958.49	3.7610	3.7610	-0.8860	24.56	-0.04	-0.050			
0.3909	25014.89	3.7600	3.7599	-0.8805	24.56	-0.04	-0.050			
0.3917	25070.51	3.7590	3.7590	-0.8745	24.55	-0.05	-0.050			
0.3926	25126.43	3.7580	3.7580	-0.8696	24.54	-0.06	-0.050			
0.3935	25181.96	3.7570	3.7570	-0.8647	24.54	-0.06	-0.050			
0.3943	25236.82	3.7560	3.7560	-0.8586	24.54	-0.06	-0.050			
0.3952	25291.39	3.7550	3.7550	-0.8529	24.54	-0.06	-0.050			
0.3960	25346.15	3.7540	3.7539	-0.8487	24.54	-0.06	-0.050			
0.3969	25400.27	3.7530	3.7529	-0.8441	24.54	-0.06	-0.050			
0.3977	25454.25	3.7520	3.7521	-0.8395	24.54	-0.06	-0.050			
0.3986	25507.67	3.7510	3.7509	-0.8348	24.54	-0.06	-0.050			
0.3994	25560.84	3.7500	3.7500	-0.8301	24.56	-0.04	-0.050			
0.4002	25613.75	3.7490	3.7490	-0.8251	24.55	-0.05	-0.050	0.367	0.579	
0.4010	25666.25	3.7480	3.7481	-0.8219	24.56	-0.04	-0.050			
0.4019	25718.76	3.7470	3.7470	-0.8183	24.55	-0.05	-0.050			
0.4027	25770.66	3.7460	3.7460	-0.8148	24.54	-0.06	-0.050			
0.4035	25822.23	3.7450	3.7450	-0.8121	24.55	-0.05	-0.050			
0.4043	25873.60	3.7440	3.7440	-0.8091	24.54	-0.06	-0.050			
0.4051	25924.83	3.7430	3.7430	-0.8072	24.54	-0.06	-0.050			
0.4059	25975.83	3.7420	3.7420	-0.8043	24.53	-0.07	-0.050			
0.4067	26027.02	3.7410	3.7410	-0.8034	24.53	-0.07	-0.050			
0.4075	26077.89	3.7400	3.7400	-0.8027	24.54	-0.06	-0.050			
0.4083	26128.88	3.7390	3.7390	-0.8034	24.54	-0.06	-0.050			
0.4091	26179.64	3.7380	3.7380	-0.8051	24.55	-0.05	-0.050			
0.4099	26231.09	3.7370	3.7370	-0.8070	24.54	-0.06	-0.050			
0.4107	26282.25	3.7360	3.7360	-0.8091	24.54	-0.06	-0.050			
0.4115	26333.51	3.7350	3.7350	-0.8116	24.54	-0.06	-0.050			
0.4123	26385.18	3.7340	3.7340	-0.8149	24.53	-0.07	-0.050			
0.4131	26437.02	3.7330	3.7330	-0.8191	24.52	-0.08	-0.050			
0.4139	26489.03	3.7320	3.7320	-0.8233	24.52	-0.08	-0.050			
0.4147	26541.55	3.7310	3.7310	-0.8286	24.50	-0.10	-0.050			
0.4155	26594.19	3.7300	3.7299	-0.8350	24.50	-0.10	-0.050			
0.4164	26647.57	3.7290	3.7290	-0.8416	24.51	-0.09	-0.050			
0.4172	26701.05	3.7280	3.7280	-0.8477	24.50	-0.10	-0.050			
0.4181	26755.28	3.7270	3.7270	-0.8554	24.51	-0.09	-0.050			
0.4189	26809.71	3.7260	3.7260	-0.8644	24.52	-0.08	-0.050			
0.4198	26864.43	3.7250	3.7250	-0.8739	24.52	-0.08	-0.050			
0.4206	26920.28	3.7240	3.7240	-0.8841	24.52	-0.08	-0.050	0.584	0.636	
0.4215	26976.65	3.7230	3.7229	-0.8952	24.51	-0.09	-0.050			
0.4224	27033.72	3.7220	3.7220	-0.9072	24.50	-0.10	-0.050			
0.4233	27091.58	3.7210	3.7210	-0.9190	24.51	-0.09	-0.050			
0.4242	27150.16	3.7200	3.7200	-0.9325	24.51	-0.09	-0.050			
0.4252	27209.68	3.7190	3.7190	-0.9461	24.50	-0.10	-0.050			
0.4261	27270.28	3.7180	3.7180	-0.9593	24.50	-0.10	-0.050			
0.4271	27332.00	3.7170	3.7170	-0.9746	24.50	-0.10	-0.050			
0.4280	27394.24	3.7160	3.7160	-0.9911	24.48	-0.12	-0.050			
0.4290	27457.33	3.7150	3.7150	-1.0085	24.49	-0.11	-0.050			
0.4300	27521.90	3.7140	3.7140	-1.0266	24.48	-0.12	-0.050			
0.4311	27587.69	3.7130	3.7129	-1.0442	24.50	-0.10	-0.050			
0.4321	27654.95	3.7120	3.7120	-1.0625	24.52	-0.08	-0.050			
0.4332	27723.19	3.7110	3.7110	-1.0819	24.62	0.02	-0.050			
0.4343	27792.31	3.7100	3.7100	-1.1029	24.54	-0.06	-0.050			
0.4354	27863.27	3.7090	3.7089	-1.1244	24.46	-0.14	-0.050			
0.4365	27935.32	3.7080	3.7079	-1.1462	24.44	-0.16	-0.050			
0.4376	28009.03	3.7070	3.7069	-1.1685	24.45	-0.15	-0.050			
0.4388	28084.07	3.7060	3.7060	-1.1896	24.46	-0.14	-0.050			
0.4400	28160.78	3.7050	3.7051	-1.2112	24.46	-0.14	-0.050			
0.4412	28238.98	3.7040	3.7041	-1.2346	24.46	-0.14	-0.050			
0.4425	28318.54	3.7030	3.7030	-1.2581	24.46	-0.14	-0.050			
0.4437	28399.63	3.7020	3.7020	-1.2816	24.47	-0.13	-0.050			
0.4450	28482.64	3.7010	3.7010	-1.3045	24.47	-0.13	-0.050			
0.4464	28567.19	3.7000	3.7000	-1.3276	24.48	-0.12	-0.050			
0.4477	28652.94	3.6990	3.6990	-1.3522	24.47	-0.13	-0.050			
0.4491	28740.43	3.6980	3.6980	-1.3750	24.48	-0.12	-0.050			
0.4505	28829.00	3.6970	3.6970	-1.3983	24.47	-0.13	-0.050			
0.4519	28918.64	3.6960	3.6960	-1.4226	24.45	-0.15	-0.050			
0.4533	29010.13	3.6950	3.6950	-1.4474	24.46	-0.14	-0.050			
0.4547	29103.51	3.6940	3.6939	-1.4726	24.45	-0.15	-0.050			
0.4562	29198.65	3.6930	3.6930	-1.4971	24.46	-0.14	-0.050			
0.4577	29295.54	3.6920	3.6921	-1.5199	24.46	-0.14	-0.050			
0.4593	29393.38	3.6910	3.6909	-1.5428	24.46	-0.14	-0.050			
0.4608	29492.94	3.6900	3.6901	-1.5656	24.46	-0.14	-0.050			
0.4624	29594.33	3.6890	3.6890	-1.5891	24.47	-0.13	-0.050			
0.4640	29697.48	3.6880	3.6879	-1.6109	24.45	-0.15	-0.050			
0.4657	29801.71	3.6870	3.6870	-1.6336	24.45	-0.15	-0.050			
0.4673	29907.44	3.6860	3.6860	-1.6558	24.44	-0.16	-0.050			
0.4690	30014.24	3.6850	3.6850	-1.6776	24.45	-0.15	-0.050			
0.4707	30122.09	3.6840	3.6840	-1.7006	24.46	-0.14	-0.050			
0.4724	30231.23	3.6830	3.6830	-1.7237	24.46	-0.14	-0.050			
0.4741	30342.15	3.6820	3.6821	-1.7475	24.45	-0.15	-0.050			
0.4759	30455.13	3.6810	3.6810	-1.7689	24.43	-0.17	-0.050			
0.4776	30568.89	3.6800	3.6799	-1.7898	24.44	-0.16	-0.050			
0.4794	30683.74	3.6790	3.6790	-1.8115	24.43	-0.17	-0.050			
0.4812	30799.85	3.6780	3.6780	-1.8347	24.44	-0.16	-0.050	0.480	0.635	
0.4831	30917.67	3.6770	3.6770	-1.8561	24.44	-0.16	-0.050			
0.4850	31037.09	3.6760	3.6760	-1.8782	24.44	-0.16	-0.050			
0.4868	31157.74	3.6750	3.6749	-1.9027	24.43	-0.17	-0.050			
0.4888	31280.20	3.6740	3.6740	-1.9266	24.43	-0.17	-0.050			
0.4907	31404.15	3.6730	3.6730	-1.9521	24.42	-0.18	-0.050			
0.4927	31529.85	3.6720	3.6721	-1.9762	24.43	-0.17	-0.050			
0.4946	31656.98	3.6710	3.6710	-2.0010	24.42	-0.18	-0.050			
0.4967	31785.94	3.6700	3.6700	-2.0261	24.43	-0.17	-0.050			
0.4987	31915.97	3.6690	3.6690	-2.0528	24.42	-0.18	-0.050			
0.5007	32047.72	3.6680	3.6680	-2.0781	24.44	-0.16	-0.050	-0.013	0.570	
0.5028	32181.04	3.6670	3.6669	-2.1050	24.42	-0.18	-0.050			
0.5049	32316.00	3.6660	3.6660	-2.1312	24.42	-0.18	-0.050			
0.5071	32452.79	3.6650	3.6650	-2.1583	24.42	-0.18	-0.050			
0.5092	32590.84	3.6640	3.6640	-2.1866	24.42	-0.18	-0.050			
0.5114	32731.54	3.6630	3.6630	-2.2166	24.43	-0.17	-0.050			
0.5137	32874.57	3.6620	3.6619	-2.2458	24.43	-0.17	-0.050			
0.5159	33019.48	3.6610	3.6610	-2.2757	24.42	-0.18	-0.050			
0.5182	33164.87	3.6600	3.6599	-2.3058	24.44	-0.16	-0.050			
0.5205	33313.18	3.6590	3.6590	-2.3368	24.45	-0.15	-0.050			
0.5229	33463.35	3.6580	3.6580	-2.3686	24.46	-0.14	-0.050			
0.5253	33616.09	3.6570	3.6570	-2.4014	24.46	-0.14	-0.050			
0.5277	33770.43	3.6560	3.6560	-2.4320	24.46	-0.14	-0.050			
0.5301	33926.78	3.6550	3.6550	-2.4646	24.46	-0.14	-0.050			
0.5326	34085.18	3.6540	3.6540	-2.4983	24.45	-0.15	-0.050			
0.5351	34246.33	3.6530	3.6531	-2.5312	24.47	-0.13	-0.050			
0.5376	34409.57	3.6520	3.6520	-2.5646	24.47	-0.13	-0.050			
0.5402	34574.29	3.6510	3.6511	-2.5987	24.48	-0.12	-0.050	0.169	0.612	
0.5428	34741.24	3.6500	3.6501	-2.6342	24.48	-0.12	-0.050			
0.5455	34910.32	3.6490	3.6490	-2.6692	24.50	-0.10	-0.050			
0.5482	35082.24	3.6480	3.6480	-2.7053	24.47	-0.13	-0.050			
0.5509	35256.25	3.6470	3.6471	-2.7412	24.47	-0.13	-0.050			
0.5536	35432.59	3.6460	3.6459	-2.7777	24.48	-0.12	-0.050			
0.5564	35610.90	3.6450	3.6451	-2.8159	24.47	-0.13	-0.050			
0.5593	35792.46	3.6440	3.6440	-2.8535	24.45	-0.15	-0.050	0.544	0.628	
0.5621	35976.69	3.6430	3.6430	-2.8887	24.45	-0.15	-0.050			
0.5650	36162.78	3.6420	3.6420	-2.9226	24.44	-0.16	-0.050			
0.5680	36351.23	3.6410	3.6410	-2.9565	24.45	-0.15	-0.050			
0.5710	36542.16	3.6400	3.6400	-2.9910	24.43	-0.17	-0.050			
0.5740	36735.00	3.6390	3.6390	-3.0293	24.44	-0.16	-0.050			
0.5770	36930.75	3.6380	3.6379	-3.0624	24.44	-0.16	-0.050			
0.5801	37127.63	3.6370	3.6371	-3.0956	24.44	-0.16	-0.050	0.463	0.637	
0.5832	37326.54	3.6360	3.6360	-3.1320	24.45	-0.15	-0.050			
0.5864	37527.74	3.6350	3.6350	-3.1699	24.44	-0.16	-0.050			
0.5895	37730.50	3.6340	3.6340	-3.2074	24.44	-0.16	-0.050			
0.5928	37937.03	3.6330	3.6330	-3.2418	24.45	-0.15	-0.050			
0.5960	38146.13	3.6320	3.6321	-3.2735	24.42	-0.18	-0.050			
0.5993	38357.09	3.6310	3.6310	-3.3051	24.42	-0.18	-0.050	0.603	0.717	
0.6027	38569.71	3.6300	3.6300	-3.3397	24.43	-0.17	-0.050			
0.6060	38785.86	3.6290	3.6290	-3.3685	24.44	-0.16	-0.050			
0.6094	39004.07	3.6280	3.6280	-3.3987	24.43	-0.17	-0.050			
0.6129	39224.90	3.6270	3.6271	-3.4197	24.42	-0.18	-0.050			
0.6164	39446.70	3.6260	3.6260	-3.4353	24.44	-0.16	-0.050			
0.6198	39668.24	3.6250	3.6250	-3.4473	24.44	-0.16	-0.050	0.481	0.662	
0.6233	39890.69	3.6240	3.6240	-3.4565	24.44	-0.16	-0.050			
0.6268	40113.90	3.6230	3.6230	-3.4591	24.45	-0.15	-0.050			
0.6303	40336.46	3.6220	3.6220	-3.4575	24.44	-0.16	-0.050			
0.6337	40558.14	3.6210	3.6210	-3.4532	24.44	-0.16	-0.050			
0.6372	40780.39	3.6200	3.6200	-3.4471	24.45	-0.15	-0.050			
0.6407	41002.50	3.6190	3.6190	-3.4400	24.43	-0.17	-0.050	0.473	0.608	
0.6441	41223.41	3.6180	3.6180	-3.4251	24.46	-0.14	-0.050			
0.6476	41443.24	3.6170	3.6170	-3.4029	24.45	-0.15	-0.050			
0.6510	41661.56	3.6160	3.6160	-3.3764	24.44	-0.16	-0.050			
0.6543	41878.39	3.6150	3.6149	-3.3543	24.46	-0.14	-0.050			
0.6577	42094.06	3.6140	3.6140	-3.3224	24.44	-0.16	-0.050			
0.6611	42308.13	3.6130	3.6130	-3.2880	24.44	-0.16	-0.050	0.525	0.654	
0.6644	42519.58	3.6120	3.6120	-3.2488	24.46	-0.14	-0.050			
0.6676	42727.59	3.6110	3.6110	-3.2023	24.46	-0.14	-0.050			
0.6708	42933.06	3.6100	3.6100	-3.1533	24.44	-0.16	-0.050			
0.6740	43135.23	3.6090	3.6090	-3.1018	24.46	-0.14	-0.050			
0.6771	43332.89	3.6080	3.6080	-3.0465	24.48	-0.12	-0.050			
0.6801	43526.51	3.6070	3.6071	-2.9887	24.48	-0.12	-0.050	0.394	0.679	
0.6831	43716.21	3.6060	3.6060	-2.9294	24.46	-0.14	-0.050			
0.6860	43901.27	3.6050	3.6050	-2.8706	24.48	-0.12	-0.050			
0.6888	44082.65	3.6040	3.6041	-2.8117	24.47	-0.13	-0.050			
0.6916	44260.33	3.6030	3.6030	-2.7537	24.49	-0.11	-0.050			
0.6943	44433.90	3.6020	3.6020	-2.6960	24.50	-0.10	-0.050			
0.6969	44603.31	3.6010	3.6010	-2.6401	24.52	-0.08	-0.050			
0.6995	44767.70	3.6000	3.6001	-2.5856	24.51	-0.09	-0.050	0.427	0.676	
0.7020	44929.14	3.5990	3.5990	-2.5325	24.52	-0.08	-0.050			
0.7045	45090.06	3.5980	3.5981	-2.4834	24.52	-0.08	-0.050			
0.7070	45245.33	3.5970	3.5970	-2.4397	24.52	-0.08	-0.050			
0.7093	45397.94	3.5960	3.5961	-2.3975	24.54	-0.06	-0.050			
0.7117	45548.07	3.5950	3.5949	-2.3573	24.54	-0.06	-0.050			
0.7140	45695.20	3.5940	3.5940	-2.3205	24.54	-0.06	-0.050			
0.7163	45840.71	3.5930	3.5929	-2.2861	24.56	-0.04	-0.050			
0.7185	45984.73	3.5920	3.5920	-2.2536	24.58	-0.02	-0.050			
0.7207	46127.05	3.5910	3.5909	-2.2210	24.59	-0.01	-0.050	0.483	0.571	
0.7229	46267.59	3.5900	3.5900	-2.1891	24.59	-0.01	-0.050			
0.7251	46406.06	3.5890	3.5890	-2.1591	24.59	-0.01	-0.050			
0.7272	46543.33	3.5880	3.5878	-2.1292	24.66	0.06	-0.050			
0.7294	46678.88	3.5870	3.5870	-2.1000	24.75	0.15	-0.050			
0.7314	46812.50	3.5860	3.5860	-2.0711	24.56	-0.04	-0.050			
0.7335	46945.35	3.5850	3.5849	-2.0431	24.59	-0.01	-0.050			
0.7356	47075.33	3.5840	3.5840	-2.0138	24.65	0.05	-0.050			
0.7376	47203.98	3.5830	3.5830	-1.9858	24.64	0.04	-0.050			
0.7395	47330.15	3.5820	3.5820	-1.9578	24.64	0.04	-0.050			
0.7415	47453.91	3.5810	3.5810	-1.9282	24.64	0.04	-0.050	0.573	0.672	
0.7434	47575.14	3.5800	3.5800	-1.9010	24.65	0.05	-0.050			
0.7452	47695.40	3.5790	3.5790	-1.8744	24.63	0.03	-0.050			
0.7471	47813.54	3.5780	3.5779	-1.8490	24.62	0.02	-0.050			
0.7489	47929.59	3.5770	3.5770	-1.8219	24.63	0.03	-0.050			
0.7507	48044.30	3.5760	3.5760	-1.7992	24.63	0.03	-0.050			
0.7525	48157.55	3.5750	3.5750	-1.7780	24.63	0.03	-0.050			
0.7542	48269.48	3.5740	3.5740	-1.7561	24.63	0.03	-0.050			
0.7559	48380.25	3.5730	3.5730	-1.7385	24.62	0.02	-0.050			
0.7577	48490.65	3.5720	3.5720	-1.7216	24.64	0.04	-0.050			
0.7594	48599.35	3.5710	3.5710	-1.7064	24.62	0.02	-0.050			
0.7610	48706.41	3.5700	3.5700	-1.6941	24.64	0.04	-0.050	0.534	0.646	
0.7627	48813.10	3.5690	3.5691	-1.6842	24.64	0.04	-0.050			
0.7644	48919.07	3.5680	3.5680	-1.6754	24.64	0.04	-0.050			
0.7660	49024.55	3.5670	3.5670	-1.6686	24.62	0.02	-0.050			
0.7676	49129.48	3.5660	3.5660	-1.6641	24.63	0.03	-0.050			
0.7693	49233.93	3.5650	3.5650	-1.6621	24.64	0.04	-0.050			
0.7709	49338.65	3.5640	3.5640	-1.6598	24.62	0.02	-0.050			
0.7726	49443.78	3.5630	3.5630	-1.6610	24.62	0.02	-0.050			
0.7742	49549.25	3.5620	3.5619	-1.6615	24.62	0.02	-0.050			
0.7759	49654.75	3.5610	3.5609	-1.6630	24.63	0.03	-0.050			
0.7775	49761.97	3.5600	3.5600	-1.6631	24.62	0.02	-0.050			
0.7792	49869.37	3.5590	3.5590	-1.6640	24.63	0.03	-0.050			
0.7809	49977.34	3.5580	3.5580	-1.6633	24.62	0.02	-0.050	0.606	0.685	
0.7826	50084.98	3.5570	3.5570	-1.6618	24.63	0.03	-0.050			
0.7843	50193.22	3.5560	3.5560	-1.6572	24.62	0.02	-0.050			
0.7860	50301.68	3.5550	3.5549	-1.6511	24.64	0.04	-0.050			
0.7876	50409.34	3.5540	3.5540	-1.6405	24.63	0.03	-0.050			
0.7893	50516.31	3.5530	3.5530	-1.6291	24.64	0.04	-0.050			
0.7910	50622.33	3.5520	3.5520	-1.6126	24.64	0.04	-0.050			
0.7926	50726.87	3.5510	3.5511	-1.5949	24.63	0.03	-0.050			
0.7942	50829.98	3.5500	3.5500	-1.5737	24.63	0.03	-0.050			
0.7958	50931.94	3.5490	3.5490	-1.5506	24.63	0.03	-0.050			
0.7974	51031.40	3.5480	3.5480	-1.5242	24.64	0.04	-0.050			
0.7989	51129.52	3.5470	3.5471	-1.4965	24.64	0.04	-0.050			
0.8004	51224.68	3.5460	3.5460	-1.4668	24.65	0.05	-0.050	0.499	0.689	
0.8018	51318.13	3.5450	3.5450	-1.4363	24.66	0.06	-0.050			
0.8033	51409.61	3.5440	3.5439	-1.4053	24.66	0.06	-0.050			
0.8047	51498.80	3.5430	3.5431	-1.3737	24.66	0.06	-0.050			
0.8060	51585.99	3.5420	3.5420	-1.3428	24.64	0.04	-0.050			
0.8074	51670.85	3.5410	3.5411	-1.3107	24.64	0.04	-0.050			
0.8087	51753.79	3.5400	3.5400	-1.2809	24.64	0.04	-0.050			
0.8099	51833.92	3.5390	3.5390	-1.2508	24.64	0.04	-0.050			
0.8111	51912.12	3.5380	3.5380	-1.2204	24.65	0.05	-0.050			
0.8123	51988.62	3.5370	3.5370	-1.1915	24.65	0.05	-0.050			
0.8135	52063.11	3.5360	3.5361	-1.1654	24.64	0.04	-0.050			
0.8146	52135.69	3.5350	3.5350	-1.1378	24.60	0.00	-0.050			
0.8157	52206.29	3.5340	3.5340	-1.1136	24.63	0.03	-0.050			
0.8168	52275.80	3.5330	3.5330	-1.0902	24.62	0.02	-0.050			
0.8179	52343.56	3.5320	3.5319	-1.0700	24.61	0.01	-0.050			
0.8189	52410.00	3.5310	3.5310	-1.0492	24.60	0.00	-0.050			
0.8199	52475.10	3.5300	3.5299	-1.0337	24.61	0.01	-0.050			
0.8209	52539.48	3.5290	3.5290	-1.0180	24.61	0.01	-0.050	0.519	0.657	
0.8219	52602.18	3.5280	3.5280	-1.0065	24.61	0.01	-0.050			
0.8229	52664.33	3.5270	3.5270	-0.9971	24.61	0.01	-0.050			
0.8238	52725.95	3.5260	3.5261	-0.9884	24.62	0.02	-0.050			
0.8248	52787.10	3.5250	3.5250	-0.9840	24.60	0.00	-0.050			
0.8258	52848.65	3.5240	3.5239	-0.9826	24.61	0.01	-0.050			
0.8267	52909.87	3.5230	3.5229	-0.9788	24.62	0.02	-0.050			
0.8277	52970.77	3.5220	3.5220	-0.9785	24.60	0.00	-0.050			
0.8286	53032.88	3.5210	3.5209	-0.9795	24.60	0.00	-0.050			
0.8296	53094.73	3.5200	3.5201	-0.9807	24.62	0.02	-0.050			
0.8306	53157.50	3.5190	3.5189	-0.9822	24.60	0.00	-0.050			
0.8316	53221.06	3.5180	3.5179	-0.9840	24.61	0.01	-0.050			
0.8326	53284.85	3.5170	3.5170	-0.9844	24.61	0.01	-0.050			
0.8336	53348.81	3.5160	3.5160	-0.9852	24.59	-0.01	-0.050			
0.8346	53412.80	3.5150	3.5151	-0.9849	24.60	0.00	-0.050			
0.8356	53477.67	3.5140	3.5139	-0.9823	24.62	0.02	-0.050			
0.8366	53541.44	3.5130	3.5130	-0.9786	24.62	0.02	-0.050			
0.8376	53605.75	3.5120	3.5120	-0.9740	24.60	0.00	-0.050			
0.8386	53668.88	3.5110	3.5110	-0.9674	24.58	-0.02	-0.050			
0.8396	53731.68	3.5100	3.5100	-0.9597	24.60	0.00	-0.050			
0.8405	53793.49	3.5090	3.5090	-0.9487	24.60	0.00	-0.050	0.479	0.691	
0.8415	53854.66	3.5080	3.5080	-0.9392	24.62	0.02	-0.050			
0.8424	53914.77	3.5070	3.5070	-0.9289	24.62	0.02	-0.050			
0.8433	53973.43	3.5060	3.5060	-0.9183	24.62	0.02	-0.050			
0.8442	54031.54	3.5050	3.5050	-0.9082	24.61	0.01	-0.050			
0.8451	54088.23	3.5040	3.5040	-0.8999	24.61	0.01	-0.050			
0.8460	54144.66	3.5030	3.5030	-0.8923	24.61	0.01	-0.050			
0.8469	54199.25	3.5020	3.5020	-0.8873	24.63	0.03	-0.050			
0.8477	54254.58	3.5010	3.5011	-0.8836	24.63	0.03	-0.050			
0.8486	54308.45	3.5000	3.5000	-0.8833	24.62	0.02	-0.050			
0.8494	54363.37	3.4990	3.4990	-0.8852	24.63	0.03	-0.050			
0.8503	54416.87	3.4980	3.4980	-0.8912	24.62	0.02	-0.050			
0.8511	54470.32	3.4970	3.4970	-0.9005	24.62	0.02	-0.050			
0.8520	54525.28	3.4960	3.4961	-0.9168	24.60	0.00	-0.050			
0.8528	54581.13	3.4950	3.4951	-0.9387	24.61	0.01	-0.050			
0.8537	54635.35	3.4940	3.4940	-0.9656	24.62	0.02	-0.050			
0.8546	54692.29	3.4930	3.4931	-1.0032	24.62	0.02	-0.050			
0.8555	54749.79	3.4920	3.4922	-1.0426	24.62	0.02	-0.050			
0.8564	54811.96	3.4910	3.4911	-1.0948	24.61	0.01	-0.050			
0.8575	54877.32	3.4900	3.4900	-1.1564	24.62	0.02	-0.050			
0.8585	54943.14	3.4890	3.4892	-1.2213	24.62	0.02	-0.050			
0.8597	55017.78	3.4880	3.4881	-1.3001	24.62	0.02	-0.050			
0.8609	55096.33	3.4870	3.4870	-1.3911	24.61	0.01	-0.050	0.423	0.673	
0.8622	55181.79	3.4860	3.4860	-1.4764	24.59	-0.01	-0.050			
0.8637	55276.99	3.4850	3.4849	-1.5763	24.62	0.02	-0.050			
0.8653	55379.36	3.4840	3.4839	-1.6716	24.60	0.00	-0.050			
0.8671	55491.30	3.4830	3.4830	-1.7747	24.60	0.00	-0.050			
0.8689	55611.70	3.4820	3.4819	-1.8711	24.60	0.00	-0.050			
0.8709	55740.55	3.4810	3.4808	-1.9632	24.61	0.01	-0.050			
0.8731	55876.63	3.4800	3.4798	-2.0507	24.59	-0.01	-0.050			
0.8753	56017.70	3.4790	3.4789	-2.1241	24.59	-0.01	-0.050			
0.8776	56164.82	3.4780	3.4779	-2.1942	24.58	-0.02	-0.050			
0.8799	56315.52	3.4770	3.4770	-2.2555	24.60	-0.00	-0.050	0.520	0.749	
0.8824	56470.83	3.4760	3.4760	-2.2988	24.59	-0.01	-0.050			
0.8848	56627.28	3.4750	3.4750	-2.3304	24.61	0.01	-0.050			
0.8873	56787.00	3.4740	3.4740	-2.3537	24.59	-0.01	-0.050			
0.8898	56946.36	3.4730	3.4730	-2.3624	24.58	-0.02	-0.050			
0.8923	57105.55	3.4720	3.4720	-2.3537	24.58	-0.02	-0.050			
0.8947	57261.05	3.4710	3.4710	-2.3347	24.58	-0.02	-0.050			
0.8971	57413.59	3.4700	3.4699	-2.3060	24.60	0.00	-0.050			
0.8994	57563.98	3.4690	3.4690	-2.2729	24.58	-0.02	-0.050			
0.9017	57710.39	3.4680	3.4680	-2.2326	24.58	-0.02	-0.050	0.593	0.787	
0.9040	57854.45	3.4670	3.4670	-2.1892	24.59	-0.01	-0.050			
0.9062	57994.91	3.4660	3.4660	-2.1407	24.59	-0.01	-0.050			
0.9083	58131.83	3.4650	3.4651	-2.0917	24.59	-0.01	-0.050			
0.9104	58265.42	3.4640	3.4640	-2.0397	24.59	-0.01	-0.050			
0.9124	58395.57	3.4630	3.4630	-1.9856	24.59	-0.01	-0.050			
0.9144	58521.90	3.4620	3.4620	-1.9297	24.60	-0.00	-0.050			
0.9163	58644.06	3.4610	3.4611	-1.8724	24.58	-0.02	-0.050			
0.9182	58762.54	3.4600	3.4600	-1.8135	24.59	-0.01	-0.050			
0.9199	58876.48	3.4590	3.4590	-1.7514	24.58	-0.02	-0.050	0.452	0.733	
0.9217	58987.16	3.4580	3.4580	-1.6924	24.57	-0.03	-0.050			
0.9233	59094.20	3.4570	3.4570	-1.6338	24.61	0.01	-0.050			
0.9250	59196.89	3.4560	3.4560	-1.5741	24.60	0.00	-0.050			
0.9265	59296.20	3.4550	3.4551	-1.5151	24.60	0.00	-0.050			
0.9280	59390.90	3.4540	3.4540	-1.4555	24.59	-0.01	-0.050			
0.9294	59482.23	3.4530	3.4530	-1.3964	24.60	-0.00	-0.050			
0.9308	59568.83	3.4520	3.4520	-1.3393	24.59	-0.01	-0.050			
0.9321	59651.65	3.4510	3.4511	-1.2805	24.58	-0.02	-0.050			
0.9333	59730.96	3.4500	3.4500	-1.2242	24.60	0.00	-0.050			
0.9345	59806.61	3.4490	3.4490	-1.1689	24.62	0.02	-0.050			
0.9356	59878.96	3.4480	3.4480	-1.1155	24.60	0.00	-0.050			
0.9367	59947.32	3.4470	3.4470	-1.0632	24.62	0.02	-0.050			
0.9377	60012.43	3.4460	3.4460	-1.0120	24.62	0.02	-0.050			
0.9387	60074.35	3.4450	3.4450	-0.9637	24.61	0.01	-0.050			
0.9396	60133.44	3.4440	3.4440	-0.9172	24.60	0.00	-0.050			
0.9405	60188.97	3.4430	3.4430	-0.8721	24.61	0.01	-0.050	0.452	0.808	
0.9413	60241.99	3.4420	3.4421	-0.8298	24.61	0.01	-0.050			
0.9421	60292.96	3.4410	3.4410	-0.7862	24.62	0.02	-0.050			
0.9428	60340.82	3.4400	3.4400	-0.7485	24.64	0.04	-0.050			
0.9435	60385.85	3.4390	3.4390	-0.7125	24.63	0.03	-0.050			
0.9442	60427.73	3.4380	3.4380	-0.6768	24.62	0.02	-0.050			
0.9448	60469.31	3.4370	3.4370	-0.6417	24.63	0.03	-0.050			
0.9454	60506.99	3.4360	3.4360	-0.6113	24.64	0.04	-0.050			
0.9460	60544.29	3.4350	3.4350	-0.5799	24.64	0.04	-0.050			
0.9465	60578.21	3.4340	3.4339	-0.5538	24.63	0.03	-0.050			
0.9470	60610.67	3.4330	3.4329	-0.5300	24.62	0.02	-0.050			
0.9475	60642.07	3.4320	3.4320	-0.5028	24.63	0.03	-0.050			
0.9480	60671.94	3.4310	3.4309	-0.4835	24.63	0.03	-0.050			
0.9485	60701.50	3.4300	3.4300	-0.4624	24.64	0.04	-0.050			
0.9489	60728.74	3.4290	3.4291	-0.4455	24.64	0.04	-0.050			
0.9493	60755.99	3.4280	3.4280	-0.4274	24.64	0.04	-0.050			
0.9497	60781.19	3.4270	3.4270	-0.4134	24.64	0.04	-0.050			
0.9501	60806.39	3.4260	3.4260	-0.3978	24.65	0.05	-0.050			
0.9505	60830.05	3.4250	3.4250	-0.3861	24.66	0.06	-0.050			
0.9508	60853.56	3.4240	3.4240	-0.3727	24.65	0.05	-0.050			
0.9512	60875.90	3.4230	3.4230	-0.3628	24.65	0.05	-0.050			
0.9515	60898.09	3.4220	3.4220	-0.3513	24.65	0.05	-0.050			
0.9519	60920.29	3.4210	3.4209	-0.3423	24.66	0.06	-0.050			
0.9522	60940.81	3.4200	3.4200	-0.3349	24.66	0.06	-0.050			
0.9525	60961.36	3.4190	3.4190	-0.3260	24.66	0.06	-0.050			
0.9528	60980.99	3.4180	3.4180	-0.3196	24.66	0.06	-0.050			
0.9531	61001.26	3.4170	3.4170	-0.3138	24.67	0.07	-0.050			
0.9534	61020.35	3.4160	3.4160	-0.3083	24.67	0.07	-0.050			
0.9537	61039.92	3.4150	3.4150	-0.3034	24.68	0.08	-0.050			
0.9540	61058.37	3.4140	3.4140	-0.2985	24.68	0.08	-0.050			
0.9543	61077.02	3.4130	3.4130	-0.2935	24.67	0.07	-0.050			
0.9546	61095.68	3.4120	3.4119	-0.2897	24.67	0.07	-0.050			
0.9549	61113.65	3.4110	3.4109	-0.2858	24.67	0.07	-0.050			
0.9552	61131.83	3.4100	3.4100	-0.2825	24.68	0.08	-0.050			
0.9555	61149.29	3.4090	3.4090	-0.2794	24.68	0.08	-0.050			
0.9557	61167.08	3.4080	3.4081	-0.2767	24.67	0.07	-0.050			
0.9560	61184.52	3.4070	3.4070	-0.2736	24.66	0.06	-0.050			
0.9563	61201.89	3.4060	3.4060	-0.2713	24.66	0.06	-0.050			
0.9565	61218.99	3.4050	3.4050	-0.2685	24.67	0.07	-0.050			
0.9568	61236.03	3.4040	3.4040	-0.2664	24.68	0.08	-0.050			
0.9571	61252.96	3.4030	3.4031	-0.2641	24.68	0.08	-0.050			
0.9573	61269.79	3.4020	3.4020	-0.2620	24.68	0.08	-0.050			
0.9576	61286.24	3.4010	3.4010	-0.2607	24.69	0.09	-0.050			
0.9579	61302.77	3.4000	3.3999	-0.2587	24.69	0.09	-0.050			
0.9581	61319.26	3.3990	3.3989	-0.2569	24.69	0.09	-0.050			
0.9584	61335.46	3.3980	3.3980	-0.2548	24.70	0.10	-0.050			
0.9586	61351.71	3.3970	3.3971	-0.2532	24.70	0.10	-0.050			
0.9589	61367.64	3.3960	3.3960	-0.2515	24.70	0.10	-0.050			
0.9591	61383.69	3.3950	3.3949	-0.2501	24.70	0.10	-0.050			
0.9594	61399.61	3.3940	3.3940	-0.2487	24.70	0.10	-0.050			
0.9596	61415.48	3.3930	3.3930	-0.2474	24.70	0.10	-0.050			
0.9599	61431.27	3.3920	3.3920	-0.2460	24.70	0.10	-0.050			
0.9601	61446.84	3.3910	3.3910	-0.2449	24.70	0.10	-0.050			
0.9604	61462.48	3.3900	3.3900	-0.2437	24.70	0.10	-0.050			
0.9606	61478.03	3.3890	3.3890	-0.2425	24.70	0.10	-0.050			
0.9608	61493.55	3.3880	3.3880	-0.2412	24.70	0.10	-0.050	0.569	0.786	
0.9611	61508.95	3.3870	3.3870	-0.2399	24.70	0.10	-0.050			
0.9613	61524.15	3.3860	3.3860	-0.2385	24.70	0.10	-0.050			
0.9616	61539.37	3.3850	3.3850	-0.2374	24.71	0.11	-0.050			
0.9618	61554.63	3.3840	3.3840	-0.2366	24.71	0.11	-0.050			
0.9620	61569.65	3.3830	3.3830	-0.2356	24.72	0.12	-0.050			
0.9623	61584.69	3.3820	3.3820	-0.2345	24.71	0.11	-0.050			
0.9625	61599.63	3.3810	3.3810	-0.2333	24.71	0.11	-0.050			
0.9627	61614.64	3.3800	3.3800	-0.2319	24.70	0.10	-0.050			
0.9630	61629.44	3.3790	3.3790	-0.2307	24.70	0.10	-0.050			
0.9632	61644.08	3.3780	3.3781	-0.2293	24.70	0.10	-0.050			
0.9634	61658.73	3.3770	3.3770	-0.2282	24.70	0.10	-0.050			
0.9636	61673.41	3.3760	3.3760	-0.2273	24.70	0.10	-0.050			
0.9639	61687.92	3.3750	3.3750	-0.2261	24.70	0.10	-0.050			
0.9641	61702.17	3.3740	3.3739	-0.2251	24.70	0.10	-0.050			
0.9643	61716.54	3.3730	3.3730	-0.2240	24.70	0.10	-0.050			
0.9645	61730.84	3.3720	3.3721	-0.2230	24.70	0.10	-0.050			
0.9648	61745.03	3.3710	3.3711	-0.2220	24.70	0.10	-0.050			
0.9650	61759.21	3.3700	3.3700	-0.2210	24.71	0.11	-0.050			
0.9652	61773.32	3.3690	3.3690	-0.2200	24.71	0.11	-0.050			
0.9654	61787.16	3.3680	3.3680	-0.2191	24.71	0.11	-0.050			
0.9656	61801.16	3.3670	3.3670	-0.2183	24.71	0.11	-0.050			
0.9659	61815.11	3.3660	3.3660	-0.2176	24.70	0.10	-0.050			
0.9661	61829.06	3.3650	3.3650	-0.2165	24.70	0.10	-0.050			
0.9663	61842.90	3.3640	3.3640	-0.2157	24.70	0.10	-0.050			
0.9665	61856.56	3.3630	3.3629	-0.2146	24.70	0.10	-0.050			
0.9667	61870.34	3.3620	3.3620	-0.2137	24.71	0.11	-0.050			
0.9669	61883.99	3.3610	3.3611	-0.2128	24.71	0.11	-0.050			
0.9671	61897.57	3.3600	3.3600	-0.2120	24.71	0.11	-0.050			
0.9674	61911.07	3.3590	3.3591	-0.2113	24.71	0.11	-0.050			
0.9676	61924.56	3.3580	3.3580	-0.2105	24.72	0.12	-0.050			
0.9678	61938.21	3.3570	3.3570	-0.2100	24.72	0.12	-0.050			
0.9680	61951.66	3.3560	3.3560	-0.2090	24.72	0.12	-0.050			
0.9682	61965.00	3.3550	3.3551	-0.2080	24.72	0.12	-0.050			
0.9684	61978.27	3.3540	3.3540	-0.2070	24.73	0.13	-0.050			
0.9686	61991.43	3.3530	3.3530	-0.2062	24.73	0.13	-0.050			
0.9688	62004.60	3.3520	3.3520	-0.2052	24.73	0.13	-0.050			
0.9690	62017.63	3.3510	3.3510	-0.2042	24.73	0.13	-0.050			
0.9692	62030.57	3.3500	3.3499	-0.2036	24.74	0.14	-0.050			
0.9694	62043.58	3.3490	3.3490	-0.2029	24.74	0.14	-0.050			
0.9696	62056.51	3.3480	3.3480	-0.2021	24.74	0.14	-0.050			
0.9698	62069.35	3.3470	3.3470	-0.2015	24.74	0.14	-0.050			
0.9700	62082.22	3.3460	3.3461	-0.2008	24.74	0.14	-0.050			
0.9702	62094.91	3.3450	3.3450	-0.1999	24.74	0.14	-0.050			
0.9704	62107.69	3.3440	3.3439	-0.1994	24.74	0.14	-0.050			
0.9706	62120.46	3.3430	3.3430	-0.1987	24.74	0.14	-0.050			
0.9708	62133.20	3.3420	3.3420	-0.1982	24.73	0.13	-0.050			
0.9710	62145.87	3.3410	3.3410	-0.1975	24.73	0.13	-0.050			
0.9712	62158.53	3.3400	3.3400	-0.1967	24.73	0.13	-0.050			
0.9714	62171.09	3.3390	3.3390	-0.1960	24.73	0.13	-0.050			
0.9716	62183.62	3.3380	3.3380	-0.1954	24.72	0.12	-0.050			
0.9718	62196.13	3.3370	3.3370	-0.1946	24.72	0.12	-0.050			
0.9720	62208.54	3.3360	3.3361	-0.1938	24.72	0.12	-0.050			
0.9722	62220.92	3.3350	3.3350	-0.1932	24.72	0.12	-0.050			
0.9724	62233.26	3.3340	3.3341	-0.1925	24.73	0.13	-0.050			
0.9726	62245.81	3.3330	3.3330	-0.1919	24.73	0.13	-0.050			
0.9728	62258.06	3.3320	3.3320	-0.1910	24.74	0.14	-0.050			
0.9730	62270.25	3.3310	3.3309	-0.1900	24.74	0.14	-0.050			
0.9732	62282.33	3.3300	3.3300	-0.1894	24.74	0.14	-0.050			
0.9734	62294.43	3.3290	3.3290	-0.1886	24.74	0.14	-0.050			
0.9735	62306.47	3.3280	3.3280	-0.1877	24.74	0.14	-0.050			
0.9737	62318.38	3.3270	3.3270	-0.1868	24.74	0.14	-0.050			
0.9739	62330.31	3.3260	3.3260	-0.1860	24.74	0.14	-0.050			
0.9741	62342.18	3.3250	3.3250	-0.1852	24.74	0.14	-0.050			
0.9743	62354.01	3.3240	3.3240	-0.1844	24.74	0.14	-0.050			
0.9745	62365.63	3.3230	3.3230	-0.1838	24.74	0.14	-0.050			
0.9746	62377.37	3.3220	3.3220	-0.1832	24.74	0.14	-0.050			
0.9748	62389.07	3.3210	3.3210	-0.1826	24.74	0.14	-0.050			
0.9750	62400.65	3.3200	3.3200	-0.1819	24.74	0.14	-0.050			
0.9752	62412.27	3.3190	3.3190	-0.1814	24.74	0.14	-0.050			
0.9754	62423.86	3.3180	3.3180	-0.1808	24.74	0.14	-0.050			
0.9756	62435.34	3.3170	3.3170	-0.1801	24.75	0.15	-0.050			
0.9757	62446.94	3.3160	3.3160	-0.1794	24.75	0.15	-0.050			
0.9759	62458.40	3.3150	3.3150	-0.1788	24.75	0.15	-0.050			
0.9761	62469.83	3.3140	3.3140	-0.1783	24.76	0.16	-0.050			
0.9763	62481.20	3.3130	3.3130	-0.1777	24.76	0.16	-0.050			
0.9764	62492.57	3.3120	3.3120	-0.1771	24.76	0.16	-0.050			
0.9766	62503.88	3.3110	3.3110	-0.1765	24.75	0.15	-0.050			
0.9768	62515.25	3.3100	3.3100	-0.1761	24.75	0.15	-0.050			
0.9770	62526.49	3.3090	3.3090	-0.1754	24.75	0.15	-0.050			
0.9772	62537.70	3.3080	3.3080	-0.1748	24.75	0.15	-0.050			
0.9773	62548.85	3.3070	3.3070	-0.1741	24.75	0.15	-0.050			
0.9775	62559.97	3.3060	3.3060	-0.1735	24.76	0.16	-0.050			
0.9777	62571.06	3.3050	3.3051	-0.1728	24.76	0.16	-0.050			
0.9778	62582.10	3.3040	3.3040	-0.1721	24.76	0.16	-0.050			
0.9780	62593.17	3.3030	3.3030	-0.1716	24.76	0.16	-0.050			
0.9782	62604.13	3.3020	3.3019	-0.1709	24.76	0.16	-0.050			
0.9784	62615.00	3.3010	3.3010	-0.1704	24.76	0.16	-0.050			
0.9785	62625.81	3.3000	3.3000	-0.1694	24.76	0.16	-0.050			
0.9787	62636.64	3.2990	3.2990	-0.1688	24.76	0.16	-0.050			
0.9789	62647.42	3.2980	3.2980	-0.1682	24.76	0.16	-0.050			
0.9790	62658.17	3.2970	3.2970	-0.1676	24.76	0.16	-0.050			
0.9792	62668.87	3.2960	3.2960	-0.1670	24.75	0.15	-0.050			
0.9794	62679.54	3.2950	3.2950	-0.1664	24.75	0.15	-0.050			
0.9795	62690.18	3.2940	3.2940	-0.1658	24.75	0.15	-0.050			
0.9797	62700.70	3.2930	3.2930	-0.1655	24.75	0.15	-0.050			
0.9799	62711.28	3.2920	3.2920	-0.1650	24.75	0.15	-0.050			
0.9800	62721.82	3.2910	3.2910	-0.1644	24.75	0.15	-0.050			
0.9802	62732.28	3.2900	3.2900	-0.1640	24.75	0.15	-0.050			
0.9804	62742.67	3.2890	3.2890	-0.1633	24.75	0.15	-0.050			
0.9805	62753.11	3.2880	3.2880	-0.1629	24.75	0.15	-0.050			
0.9807	62763.52	3.2870	3.2870	-0.1625	24.75	0.15	-0.050			
0.9808	62773.98	3.2860	3.2860	-0.1618	24.75	0.15	-0.050	0.552	0.852	
0.9810	62784.31	3.2850	3.2849	-0.1613	24.75	0.15	-0.050			
0.9812	62794.62	3.2840	3.2840	-0.1608	24.75	0.15	-0.050			
0.9813	62804.90	3.2830	3.2830	-0.1604	24.75	0.15	-0.050			
0.9815	62815.20	3.2820	3.2820	-0.1597	24.75	0.15	-0.050			
0.9816	62825.45	3.2810	3.2811	-0.1593	24.75	0.15	-0.050			
0.9818	62835.63	3.2800	3.2800	-0.1587	24.75	0.15	-0.050			
0.9820	62845.77	3.2790	3.2789	-0.1582	24.75	0.15	-0.050			
0.9821	62855.86	3.2780	3.2780	-0.1577	24.75	0.15	-0.050			
0.9823	62865.93	3.2770	3.2770	-0.1571	24.75	0.15	-0.050			
0.9824	62876.04	3.2760	3.2760	-0.1567	24.76	0.16	-0.050			
0.9826	62886.05	3.2750	3.2750	-0.1561	24.76	0.16	-0.050			
0.9828	62896.02	3.2740	3.2740	-0.1555	24.76	0.16	-0.050			
0.9829	62905.99	3.2730	3.2729	-0.1549	24.76	0.16	-0.050			
0.9831	62915.88	3.2720	3.2720	-0.1543	24.76	0.16	-0.050			
0.9832	62925.74	3.2710	3.2711	-0.1536	24.76	0.16	-0.050			
0.9834	62935.47	3.2700	3.2700	-0.1529	24.77	0.17	-0.050			
0.9835	62945.15	3.2690	3.2689	-0.1525	24.77	0.17	-0.050			
0.9837	62954.90	3.2680	3.2680	-0.1520	24.77	0.17	-0.050			
0.9838	62964.61	3.2670	3.2670	-0.1515	24.77	0.17	-0.050			
0.9840	62974.23	3.2660	3.2661	-0.1509	24.77	0.17	-0.050			
0.9841	62983.88	3.2650	3.2651	-0.1505	24.76	0.16	-0.050			
0.9843	62993.50	3.2640	3.2640	-0.1500	24.76	0.16	-0.050			
0.9844	63003.09	3.2630	3.2630	-0.1496	24.76	0.16	-0.050			
0.9846	63012.66	3.2620	3.2620	-0.1492	24.76	0.16	-0.050			
0.9847	63022.23	3.2610	3.2610	-0.1486	24.76	0.16	-0.050			
0.9849	63031.73	3.2600	3.2600	-0.1482	24.76	0.16	-0.050			
0.9850	63041.20	3.2590	3.2590	-0.1477	24.76	0.16	-0.050			
0.9852	63050.65	3.2580	3.2580	-0.1472	24.76	0.16	-0.050			
0.9853	63060.05	3.2570	3.2570	-0.1467	24.76	0.16	-0.050			
0.9855	63069.42	3.2560	3.2560	-0.1462	24.76	0.16	-0.050			
0.9856	63078.76	3.2550	3.2550	-0.1457	24.76	0.16	-0.050			
0.9858	63088.08	3.2540	3.2540	-0.1453	24.76	0.16	-0.050			
0.9859	63097.33	3.2530	3.2530	-0.1447	24.76	0.16	-0.050			
0.9860	63106.60	3.2520	3.2520	-0.1442	24.76	0.16	-0.050			
0.9862	63115.81	3.2510	3.2510	-0.1437	24.76	0.16	-0.050			
0.9863	63125.00	3.2500	3.2500	-0.1433	24.76	0.16	-0.050			
0.9865	63134.24	3.2490	3.2490	-0.1429	24.76	0.16	-0.050			
0.9866	63143.37	3.2480	3.2479	-0.1424	24.77	0.17	-0.050			
0.9868	63152.45	3.2470	3.2470	-0.1418	24.77	0.17	-0.050			
0.9869	63161.51	3.2460	3.2460	-0.1413	24.77	0.17	-0.050			
0.9870	63170.47	3.2450	3.2450	-0.1406	24.77	0.17	-0.050			
0.9872	63179.45	3.2440	3.2440	-0.1401	24.77	0.17	-0.050			
0.9873	63188.41	3.2430	3.2430	-0.1397	24.77	0.17	-0.050			
0.9875	63197.33	3.2420	3.2420	-0.1392	24.77	0.17	-0.050			
0.9876	63206.23	3.2410	3.2410	-0.1387	24.77	0.17	-0.050			
0.9877	63215.09	3.2400	3.2400	-0.1382	24.77	0.17	-0.050			
0.9879	63223.92	3.2390	3.2390	-0.1377	24.77	0.17	-0.050			
0.9880	63232.70	3.2380	3.2380	-0.1372	24.77	0.17	-0.050			
0.9881	63241.47	3.2370	3.2370	-0.1368	24.77	0.17	-0.050			
0.9883	63250.21	3.2360	3.2360	-0.1363	24.78	0.18	-0.050			
0.9884	63258.92	3.2350	3.2349	-0.1358	24.78	0.18	-0.050			
0.9886	63267.60	3.2340	3.2340	-0.1353	24.78	0.18	-0.050			
0.9887	63276.19	3.2330	3.2330	-0.1350	24.78	0.18	-0.050			
0.9888	63284.77	3.2320	3.2320	-0.1344	24.78	0.18	-0.050			
0.9890	63293.36	3.2310	3.2310	-0.1340	24.78	0.18	-0.050			
0.9891	63301.92	3.2300	3.2299	-0.1336	24.78	0.18	-0.050			
0.9892	63310.44	3.2290	3.2290	-0.1332	24.78	0.18	-0.050			
0.9894	63318.95	3.2280	3.2280	-0.1328	24.78	0.18	-0.050			
0.9895	63327.40	3.2270	3.2271	-0.1324	24.78	0.18	-0.050			
0.9896	63335.86	3.2260	3.2260	-0.1320	24.78	0.18	-0.050			
0.9898	63344.30	3.2250	3.2250	-0.1316	24.77	0.17	-0.050			
0.9899	63352.69	3.2240	3.2239	-0.1313	24.77	0.17	-0.050			
0.9900	63361.07	3.2230	3.2230	-0.1309	24.77	0.17	-0.050			
0.9901	63369.43	3.2220	3.2220	-0.1305	24.76	0.16	-0.050			
0.9903	63377.78	3.2210	3.2210	-0.1302	24.76	0.16	-0.050			
0.9904	63386.10	3.2200	3.2200	-0.1298	24.76	0.16	-0.050			
0.9905	63394.42	3.2190	3.2189	-0.1294	24.76	0.16	-0.050			
0.9907	63402.70	3.2180	3.2180	-0.1291	24.76	0.16	-0.050			
0.9908	63410.95	3.2170	3.2171	-0.1287	24.76	0.16	-0.050			
0.9909	63419.17	3.2160	3.2160	-0.1283	24.76	0.16	-0.050			
0.9911	63427.37	3.2150	3.2149	-0.1279	24.76	0.16	-0.050			
0.9912	63435.56	3.2140	3.2140	-0.1275	24.76	0.16	-0.050			
0.9913	63443.74	3.2130	3.2131	-0.1272	24.76	0.16	-0.050			
0.9914	63451.86	3.2120	3.2121	-0.1268	24.76	0.16	-0.050			
0.9916	63459.97	3.2110	3.2111	-0.1264	24.76	0.16	-0.050			
0.9917	63468.04	3.2100	3.2100	-0.1260	24.76	0.16	-0.050			
0.9918	63476.13	3.2090	3.2090	-0.1256	24.76	0.16	-0.050			
0.9919	63484.15	3.2080	3.2080	-0.1251	24.76	0.16	-0.050			
0.9921	63492.14	3.2070	3.2070	-0.1247	24.76	0.16	-0.050			
0.9922	63500.11	3.2060	3.2060	-0.1243	24.76	0.16	-0.050			
0.9923	63508.05	3.2050	3.2050	-0.1238	24.77	0.17	-0.050			
0.9924	63515.99	3.2040	3.2040	-0.1234	24.77	0.17	-0.050			
0.9926	63523.88	3.2030	3.2030	-0.1229	24.77	0.17	-0.050			
0.9927	63531.74	3.2020	3.2020	-0.1225	24.78	0.18	-0.050			
0.9928	63539.56	3.2010	3.2010	-0.1220	24.78	0.18	-0.050			
0.9929	63547.35	3.2000	3.2000	-0.1216	24.78	0.18	-0.050			
0.9930	63555.11	3.1990	3.1990	-0.1211	24.78	0.18	-0.050			
0.9932	63562.75	3.1980	3.1980	-0.1208	24.78	0.18	-0.050			
0.9933	63570.47	3.1970	3.1971	-0.1204	24.78	0.18	-0.050			
0.9934	63578.16	3.1960	3.1960	-0.1200	24.78	0.18	-0.050			
0.9935	63585.83	3.1950	3.1950	-0.1197	24.78	0.18	-0.050			
0.9936	63593.44	3.1940	3.1940	-0.1192	24.78	0.18	-0.050			
0.9938	63601.07	3.1930	3.1930	-0.1189	24.78	0.18	-0.050			
0.9939	63608.66	3.1920	3.1920	-0.1185	24.77	0.17	-0.050			
0.9940	63616.24	3.1910	3.1910	-0.1181	24.77	0.17	-0.050			
0.9941	63623.79	3.1900	3.1900	-0.1178	24.77	0.17	-0.050			
0.9942	63631.25	3.1890	3.1889	-0.1173	24.77	0.17	-0.050			
0.9944	63638.75	3.1880	3.1879	-0.1170	24.76	0.16	-0.050			
0.9945	63646.28	3.1870	3.1870	-0.1166	24.76	0.16	-0.050			
0.9946	63653.73	3.1860	3.1860	-0.1162	24.76	0.16	-0.050			
0.9947	63661.16	3.1850	3.1850	-0.1158	24.76	0.16	-0.050			
0.9948	63668.56	3.1840	3.1840	-0.1155	24.76	0.16	-0.050			
0.9949	63675.98	3.1830	3.1830	-0.1152	24.77	0.17	-0.050			
0.9951	63683.33	3.1820	3.1821	-0.1148	24.77	0.17	-0.050			
0.9952	63690.67	3.1810	3.1811	-0.1144	24.77	0.17	-0.050			
0.9953	63697.98	3.1800	3.1800	-0.1140	24.77	0.17	-0.050			
0.9954	63705.26	3.1790	3.1790	-0.1137	24.77	0.17	-0.050			
0.9955	63712.59	3.1780	3.1779	-0.1134	24.77	0.17	-0.050			
0.9956	63719.83	3.1770	3.1770	-0.1130	24.77	0.17	-0.050			
0.9957	63726.99	3.1760	3.1761	-0.1127	24.77	0.17	-0.050			
0.9958	63734.19	3.1750	3.1750	-0.1123	24.78	0.18	-0.050			
0.9960	63741.36	3.1740	3.1739	-0.1119	24.78	0.18	-0.050			
0.9961	63748.42	3.1730	3.1730	-0.1114	24.78	0.18	-0.050			
0.9962	63755.54	3.1720	3.1720	-0.1111	24.78	0.18	-0.050			
0.9963	63762.64	3.1710	3.1711	-0.1107	24.78	0.18	-0.050			
0.9964	63769.75	3.1700	3.1701	-0.1103	24.78	0.18	-0.050			
0.9965	63776.80	3.1690	3.1689	-0.1100	24.78	0.18	-0.050			
0.9966	63783.83	3.1680	3.1679	-0.1096	24.78	0.18	-0.050			
0.9967	63790.84	3.1670	3.1670	-0.1093	24.78	0.18	-0.050			
0.9968	63797.82	3.1660	3.1661	-0.1090	24.78	0.18	-0.050			
0.9969	63804.77	3.1650	3.1650	-0.1087	24.78	0.18	-0.050			
0.9971	63811.71	3.1640	3.1640	-0.1083	24.78	0.18	-0.050			
0.9972	63818.63	3.1630	3.1630	-0.1080	24.78	0.18	-0.050			
0.9973	63825.54	3.1620	3.1620	-0.1077	24.78	0.18	-0.050			
0.9974	63832.43	3.1610	3.1610	-0.1073	24.78	0.18	-0.050			
0.9975	63839.28	3.1600	3.1600	-0.1070	24.79	0.19	-0.050			
0.9976	63846.12	3.1590	3.1591	-0.1067	24.79	0.19	-0.050			
0.9977	63852.90	3.1580	3.1580	-0.1065	24.79	0.19	-0.050			
0.9978	63859.70	3.1570	3.1570	-0.1061	24.79	0.19	-0.050			
0.9979	63866.44	3.1560	3.1560	-0.1058	24.79	0.19	-0.050			
0.9980	63873.20	3.1550	3.1550	-0.1055	24.79	0.19	-0.050			
0.9981	63879.94	3.1540	3.1540	-0.1052	24.79	0.19	-0.050			
0.9982	63886.67	3.1530	3.1530	-0.1049	24.79	0.19	-0.050			
0.9983	63893.40	3.1520	3.1520	-0.1045	24.80	0.20	-0.050			
0.9984	63900.08	3.1510	3.1510	-0.1042	24.80	0.20	-0.050			
0.9985	63906.71	3.1500	3.1500	-0.1039	24.80	0.20	-0.050			
0.9986	63913.35	3.1490	3.1489	-0.1036	24.80	0.20	-0.050			
0.9987	63919.97	3.1480	3.1480	-0.1033	24.80	0.20	-0.050			
0.9989	63926.57	3.1470	3.1470	-0.1030	24.80	0.20	-0.050			
0.9990	63933.19	3.1460	3.1460	-0.1026	24.80	0.20	-0.050			
0.9991	63939.79	3.1450	3.1450	-0.1024	24.80	0.20	-0.050			
0.9992	63946.34	3.1440	3.1440	-0.1021	24.80	0.20	-0.050			
0.9993	63952.86	3.1430	3.1430	-0.1017	24.80	0.20	-0.050			
0.9994	63959.36	3.1420	3.1420	-0.1014	24.80	0.20	-0.050			
0.9995	63965.84	3.1410	3.1410	-0.1010	24.80	0.20	-0.050			
0.9996	63972.29	3.1400	3.1401	-0.1007	24.80	0.20	-0.050			
0.9997	63978.73	3.1390	3.1390	-0.1003	24.80	0.20	-0.050			
0.9998	63985.17	3.1380	3.1380	-0.1000	24.80	0.20	-0.050			
0.9999	63991.58	3.1370	3.1370	-0.0996	24.80	0.20	-0.050			
1.0000	63997.94	3.1360	3.1360	-0.0992	24.80	0.20	-0.050			
1.0001	64004.28	3.1350	3.1350	-0.0989	24.80	0.20	-0.050			
1.0002	64010.60	3.1340	3.1340	-0.0985	24.80	0.20	-0.050			
1.0003	64016.89	3.1330	3.1330	-0.0981	24.80	0.20	-0.050			
1.0004	64023.15	3.1320	3.1321	-0.0977	24.80	0.20	-0.050			
1.0005	64029.39	3.1310	3.1311	-0.0973	24.80	0.20	-0.050			
1.0006	64035.61	3.1300	3.1300	-0.0970	24.80	0.20	-0.050			
1.0007	64041.75	3.1290	3.1290	-0.0968	24.80	0.20	-0.050			
1.0007	64047.93	3.1280	3.1280	-0.0965	24.80	0.20	-0.050	0.522	0.850	
1.0008	64054.10	3.1270	3.1271	-0.0961	24.80	0.20	-0.050			
1.0009	64060.22	3.1260	3.1260	-0.0958	24.80	0.20	-0.050			
1.0010	64066.34	3.1250	3.1250	-0.0955	24.80	0.20	-0.050			
1.0011	64072.44	3.1240	3.1241	-0.0952	24.80	0.20	-0.050			
1.0012	64078.48	3.1230	3.1230	-0.0949	24.80	0.20	-0.050			
1.0013	64084.55	3.1220	3.1220	-0.0946	24.80	0.20	-0.050			
1.0014	64090.53	3.1210	3.1210	-0.0942	24.80	0.20	-0.050			
1.0015	64096.55	3.1200	3.1199	-0.0939	24.80	0.20	-0.050			
1.0016	64102.55	3.1190	3.1190	-0.0937	24.80	0.20	-0.050			
1.0017	64108.54	3.1180	3.1180	-0.0934	24.80	0.20	-0.050			
1.0018	64114.48	3.1170	3.1170	-0.0931	24.80	0.20	-0.050			
1.0019	64120.46	3.1160	3.1160	-0.0929	24.80	0.20	-0.050			
1.0020	64126.40	3.1150	3.1151	-0.0926	24.80	0.20	-0.050			
1.0021	64132.32	3.1140	3.1141	-0.0924	24.80	0.20	-0.050			
1.0022	64138.22	3.1130	3.1130	-0.0921	24.80	0.20	-0.050			
1.0023	64144.11	3.1120	3.1120	-0.0919	24.80	0.20	-0.050			
1.0023	64149.98	3.1110	3.1110	-0.0917	24.80	0.20	-0.050			
1.0024	64155.84	3.1100	3.1100	-0.0914	24.81	0.21	-0.050			
1.0025	64161.76	3.1090	3.1090	-0.0912	24.81	0.21	-0.050			
1.0026	64167.54	3.1080	3.1080	-0.0910	24.81	0.21	-0.050			
1.0027	64173.36	3.1070	3.1069	-0.0907	24.81	0.21	-0.050			
1.0028	64179.16	3.1060	3.1060	-0.0905	24.81	0.21	-0.050			
1.0029	64184.94	3.1050	3.1050	-0.0902	24.81	0.21	-0.050			
1.0030	64190.70	3.1040	3.1040	-0.0900	24.81	0.21	-0.050			
1.0031	64196.39	3.1030	3.1030	-0.0897	24.81	0.21	-0.050			
1.0032	64202.19	3.1020	3.1020	-0.0893	24.81	0.21	-0.050			
1.0032	64207.90	3.1010	3.1010	-0.0891	24.82	0.22	-0.050			
1.0033	64213.59	3.1000	3.0999	-0.0888	24.82	0.22	-0.050			
1.0034	64219.26	3.0990	3.0990	-0.0886	24.82	0.22	-0.050			
1.0035	64224.92	3.0980	3.0980	-0.0883	24.82	0.22	-0.050			
1.0036	64230.57	3.0970	3.0970	-0.0880	24.82	0.22	-0.050			
1.0037	64236.24	3.0960	3.0960	-0.0878	24.82	0.22	-0.050			
1.0038	64241.85	3.0950	3.0950	-0.0875	24.82	0.22	-0.050			
1.0039	64247.45	3.0940	3.0940	-0.0872	24.82	0.22	-0.050			
1.0040	64253.02	3.0930	3.0930	-0.0869	24.82	0.22	-0.050			
1.0040	64258.57	3.0920	3.0920	-0.0866	24.82	0.22	-0.050			
1.0041	64264.11	3.0910	3.0910	-0.0863	24.81	0.21	-0.050			
1.0042	64269.62	3.0900	3.0900	-0.0860	24.81	0.21	-0.050			
1.0043	64275.12	3.0890	3.0890	-0.0858	24.81	0.21	-0.050			
1.0044	64280.58	3.0880	3.0880	-0.0856	24.81	0.21	-0.050			
1.0045	64286.05	3.0870	3.0871	-0.0853	24.81	0.21	-0.050			
1.0046	64291.50	3.0860	3.0861	-0.0850	24.81	0.21	-0.050			
1.0046	64296.93	3.0850	3.0850	-0.0847	24.81	0.21	-0.050			
1.0047	64302.34	3.0840	3.0840	-0.0844	24.81	0.21	-0.050			
1.0048	64307.74	3.0830	3.0829	-0.0842	24.81	0.21	-0.050			
1.0049	64313.05	3.0820	3.0819	-0.0838	24.81	0.21	-0.050			
1.0050	64318.41	3.0810	3.0810	-0.0836	24.82	0.22	-0.050			
1.0051	64323.75	3.0800	3.0800	-0.0834	24.82	0.22	-0.050			
1.0051	64329.08	3.0790	3.0790	-0.0831	24.82	0.22	-0.050			
1.0052	64334.39	3.0780	3.0780	-0.0829	24.82	0.22	-0.050			
1.0053	64339.69	3.0770	3.0770	-0.0827	24.82	0.22	-0.050			
1.0054	64344.97	3.0760	3.0760	-0.0824	24.82	0.22	-0.050			
1.0055	64350.23	3.0750	3.0750	-0.0822	24.82	0.22	-0.050			
1.0056	64355.47	3.0740	3.0740	-0.0820	24.82	0.22	-0.050			
1.0056	64360.71	3.0730	3.0730	-0.0817	24.82	0.22	-0.050			
1.0057	64365.93	3.0720	3.0720	-0.0815	24.82	0.22	-0.050			
1.0058	64371.14	3.0710	3.0710	-0.0813	24.82	0.22	-0.050			
1.0059	64376.33	3.0700	3.0700	-0.0811	24.82	0.22	-0.050			
1.0060	64381.52	3.0690	3.0690	-0.0808	24.82	0.22	-0.050			
1.0060	64386.68	3.0680	3.0680	-0.0806	24.82	0.22	-0.050			
1.0061	64391.83	3.0670	3.0670	-0.0804	24.82	0.22	-0.050			
1.0062	64397.01	3.0660	3.0661	-0.0801	24.82	0.22	-0.050			
1.0063	64402.12	3.0650	3.0650	-0.0799	24.82	0.22	-0.050			
1.0064	64407.23	3.0640	3.0640	-0.0796	24.82	0.22	-0.050			
1.0064	64412.31	3.0630	3.0629	-0.0794	24.82	0.22	-0.050			
1.0065	64417.38	3.0620	3.0619	-0.0791	24.82	0.22	-0.050			
1.0066	64422.45	3.0610	3.0610	-0.0789	24.81	0.21	-0.050			
1.0067	64427.50	3.0600	3.0600	-0.0786	24.81	0.21	-0.050			
1.0068	64432.47	3.0590	3.0590	-0.0785	24.81	0.21	-0.050			
1.0068	64437.48	3.0580	3.0580	-0.0782	24.81	0.21	-0.050			
1.0069	64442.48	3.0570	3.0570	-0.0780	24.81	0.21	-0.050			
1.0070	64447.47	3.0560	3.0561	-0.0778	24.81	0.21	-0.050			
1.0071	64452.44	3.0550	3.0551	-0.0776	24.81	0.21	-0.050			
1.0071	64457.38	3.0540	3.0540	-0.0773	24.81	0.21	-0.050			
1.0072	64462.32	3.0530	3.0530	-0.0771	24.81	0.21	-0.050			
1.0073	64467.24	3.0520	3.0520	-0.0769	24.81	0.21	-0.050			
1.0074	64472.15	3.0510	3.0510	-0.0767	24.81	0.21	-0.050			
1.0075	64477.05	3.0500	3.0500	-0.0765	24.81	0.21	-0.050			
1.0075	64481.94	3.0490	3.0490	-0.0762	24.81	0.21	-0.050			
1.0076	64486.81	3.0480	3.0480	-0.0760	24.81	0.21	-0.050			
1.0077	64491.67	3.0470	3.0470	-0.0758	24.81	0.21	-0.050			
1.0078	64496.47	3.0460	3.0460	-0.0755	24.81	0.21	-0.050			
1.0078	64501.30	3.0450	3.0451	-0.0754	24.81	0.21	-0.050			
1.0079	64506.14	3.0440	3.0440	-0.0751	24.81	0.21	-0.050			
1.0080	64510.94	3.0430	3.0430	-0.0749	24.82	0.22	-0.050			
1.0081	64515.73	3.0420	3.0420	-0.0747	24.82	0.22	-0.050			
1.0081	64520.51	3.0410	3.0410	-0.0745	24.82	0.22	-0.050			
1.0082	64525.27	3.0400	3.0400	-0.0743	24.82	0.22	-0.050			
1.0083	64530.07	3.0390	3.0390	-0.0742	24.83	0.23	-0.050			
1.0084	64534.81	3.0380	3.0380	-0.0739	24.83	0.23	-0.050			
1.0084	64539.53	3.0370	3.0370	-0.0737	24.83	0.23	-0.050			
1.0085	64544.23	3.0360	3.0360	-0.0735	24.83	0.23	-0.050			
1.0086	64548.93	3.0350	3.0350	-0.0733	24.84	0.24	-0.050			
1.0087	64553.61	3.0340	3.0340	-0.0731	24.84	0.24	-0.050			
1.0087	64558.28	3.0330	3.0330	-0.0729	24.84	0.24	-0.050			
1.0088	64562.91	3.0320	3.0320	-0.0726	24.84	0.24	-0.050			
1.0089	64567.55	3.0310	3.0310	-0.0724	24.84	0.24	-0.050			
1.0089	64572.18	3.0300	3.0300	-0.0722	24.84	0.24	-0.050			
1.0090	64576.80	3.0290	3.0290	-0.0720	24.84	0.24	-0.050			
1.0091	64581.40	3.0280	3.0280	-0.0718	24.84	0.24	-0.050			
1.0092	64585.99	3.0270	3.0270	-0.0715	24.84	0.24	-0.050			
1.0092	64590.56	3.0260	3.0260	-0.0713	24.84	0.24	-0.050			
1.0093	64595.12	3.0250	3.0250	-0.0711	24.84	0.24	-0.050			
1.0094	64599.67	3.0240	3.0240	-0.0709	24.84	0.24	-0.050			
1.0094	64604.20	3.0230	3.0230	-0.0707	24.84	0.24	-0.050			
1.0095	64608.72	3.0220	3.0221	-0.0705	24.84	0.24	-0.050			
1.0096	64613.20	3.0210	3.0210	-0.0703	24.84	0.24	-0.050			
1.0097	64617.70	3.0200	3.0200	-0.0701	24.84	0.24	-0.050			
1.0097	64622.18	3.0190	3.0190	-0.0699	24.84	0.24	-0.050			
1.0098	64626.64	3.0180	3.0180	-0.0697	24.84	0.24	-0.050			
1.0099	64631.09	3.0170	3.0170	-0.0695	24.84	0.24	-0.050			
1.0099	64635.53	3.0160	3.0160	-0.0692	24.84	0.24	-0.050			
1.0100	64639.95	3.0150	3.0150	-0.0690	24.84	0.24	-0.050			
1.0101	64644.36	3.0140	3.0140	-0.0688	24.84	0.24	-0.050			
1.0101	64648.76	3.0130	3.0130	-0.0686	24.84	0.24	-0.050			
1.0102	64653.15	3.0120	3.0119	-0.0684	24.84	0.24	-0.050			
1.0103	64657.52	3.0110	3.0109	-0.0682	24.84	0.24	-0.050			
1.0103	64661.88	3.0100	3.0101	-0.0680	24.84	0.24	-0.050			
1.0104	64666.20	3.0090	3.0091	-0.0679	24.84	0.24	-0.050			
1.0105	64670.54	3.0080	3.0080	-0.0677	24.84	0.24	-0.050			
1.0105	64674.87	3.0070	3.0070	-0.0675	24.84	0.24	-0.050			
1.0106	64679.18	3.0060	3.0060	-0.0673	24.84	0.24	-0.050			
1.0107	64683.48	3.0050	3.0050	-0.0671	24.84	0.24	-0.050			
1.0107	64687.77	3.0040	3.0040	-0.0669	24.84	0.24	-0.050			
