Ah_balance (normalized)	Ah_balance (mAh)	Voltage - fit (V)	Voltage -  interpolate (V)	dQ/dV (1/V)	Temperature (°C)	Temperature - diff (°C)	Current (C)	R_DC 0ms (mOhm)	R_DC 50ms (mOhm)	R_DC 50 ms PEC (mOhm)
-0.0039	-247.77	4.1990	4.1990	0.8327	25.03	-0.04	0.050			
-0.0030	-194.29	4.1980	4.1980	0.8409	25.04	-0.03	0.050			
-0.0022	-140.42	4.1970	4.1971	0.8417	25.05	-0.02	0.050			
-0.0014	-87.14	4.1960	4.1959	0.8393	25.05	-0.02	0.050			
-0.0005	-33.65	4.1950	4.1950	0.8410	25.05	-0.02	0.050			
0.0003	20.29	4.1940	4.1940	0.8443	25.05	-0.02	0.050			
0.0012	74.71	4.1930	4.1928	0.8475	25.05	-0.02	0.050			
0.0020	129.49	4.1920	4.1921	0.8497	25.06	-0.01	0.050			
0.0029	184.16	4.1910	4.1910	0.8513	25.07	0.00	0.050			
0.0037	238.89	4.1900	4.1900	0.8525	25.07	0.00	0.050			
0.0046	293.85	4.1890	4.1890	0.8544	25.07	0.00	0.050			
0.0054	348.63	4.1880	4.1878	0.8552	25.07	0.00	0.050			
0.0063	404.09	4.1870	4.1868	0.8553	25.07	0.00	0.050			
0.0072	459.08	4.1860	4.1862	0.8549	25.09	0.02	0.050			
0.0080	513.92	4.1850	4.1850	0.8540	25.10	0.03	0.050			
0.0089	568.44	4.1840	4.1840	0.8542	25.10	0.03	0.050			
0.0097	623.11	4.1830	4.1831	0.8531	25.10	0.03	0.050			
0.0106	677.78	4.1820	4.1820	0.8502	25.10	0.03	0.050			
0.0115	733.12	4.1810	4.1810	0.8510	25.10	0.03	0.050			
0.0123	788.46	4.1800	4.1800	0.8470	25.10	0.03	0.050			
0.0132	843.12	4.1790	4.1789	0.8451	25.11	0.04	0.050			
0.0140	896.79	4.1780	4.1780	0.8434	25.11	0.04	0.050			
0.0148	950.06	4.1770	4.1768	0.8408	25.11	0.04	0.050			
0.0157	1002.35	4.1760	4.1760	0.8417	25.11	0.04	0.050			
0.0165	1055.73	4.1750	4.1752	0.8408	25.11	0.04	0.050			
0.0173	1109.13	4.1740	4.1740	0.8410	25.11	0.04	0.050			
0.0182	1162.73	4.1730	4.1731	0.8415	25.11	0.04	0.050			
0.0190	1216.73	4.1720	4.1722	0.8421	25.11	0.04	0.050			
0.0199	1270.54	4.1710	4.1708	0.8424	25.11	0.04	0.050			
0.0207	1323.68	4.1700	4.1697	0.8428	25.13	0.06	0.050			
0.0215	1377.71	4.1690	4.1689	0.8442	25.12	0.05	0.050	0.007	0.450	
0.0224	1431.77	4.1680	4.1680	0.8454	25.13	0.06	0.050			
0.0232	1485.65	4.1670	4.1668	0.8483	25.13	0.06	0.050			
0.0241	1539.76	4.1660	4.1662	0.8499	25.13	0.06	0.050			
0.0249	1594.22	4.1650	4.1651	0.8518	25.14	0.07	0.050			
0.0258	1648.96	4.1640	4.1641	0.8536	25.14	0.07	0.050			
0.0266	1704.42	4.1630	4.1631	0.8544	25.14	0.07	0.050			
0.0275	1760.33	4.1620	4.1619	0.8573	25.15	0.08	0.050			
0.0284	1815.56	4.1610	4.1609	0.8561	25.15	0.08	0.050			
0.0292	1871.55	4.1600	4.1601	0.8574	25.15	0.08	0.050			
0.0301	1926.10	4.1590	4.1590	0.8554	25.16	0.09	0.050			
0.0309	1980.37	4.1580	4.1581	0.8541	25.17	0.10	0.050			
0.0318	2034.94	4.1570	4.1569	0.8523	25.18	0.11	0.050			
0.0326	2089.19	4.1560	4.1559	0.8506	25.18	0.11	0.050			
0.0335	2143.68	4.1550	4.1551	0.8516	25.18	0.11	0.050			
0.0343	2198.22	4.1540	4.1539	0.8533	25.18	0.11	0.050			
0.0352	2252.76	4.1530	4.1531	0.8528	25.16	0.09	0.050			
0.0361	2307.57	4.1520	4.1521	0.8523	25.14	0.07	0.050			
0.0369	2360.99	4.1510	4.1509	0.8547	25.13	0.06	0.050			
0.0377	2415.28	4.1500	4.1501	0.8535	25.13	0.06	0.050			
0.0386	2469.74	4.1490	4.1490	0.8547	25.13	0.06	0.050			
0.0394	2524.06	4.1480	4.1480	0.8570	25.12	0.05	0.050			
0.0403	2578.01	4.1470	4.1471	0.8579	25.12	0.05	0.050			
0.0411	2632.94	4.1460	4.1459	0.8597	25.11	0.04	0.050	0.478	0.305	
0.0420	2688.16	4.1450	4.1450	0.8628	25.11	0.04	0.050			
0.0429	2743.13	4.1440	4.1442	0.8688	25.10	0.03	0.050			
0.0437	2798.91	4.1430	4.1428	0.8725	25.10	0.03	0.050			
0.0446	2854.99	4.1420	4.1420	0.8748	25.10	0.03	0.050			
0.0455	2912.11	4.1410	4.1410	0.8775	25.10	0.03	0.050			
0.0464	2968.77	4.1400	4.1400	0.8786	25.09	0.02	0.050			
0.0473	3025.60	4.1390	4.1391	0.8786	25.07	0.00	0.050			
0.0482	3082.87	4.1380	4.1379	0.8773	25.07	-0.00	0.050			
0.0491	3139.29	4.1370	4.1370	0.8767	25.05	-0.02	0.050			
0.0499	3196.08	4.1360	4.1357	0.8768	25.05	-0.02	0.050			
0.0508	3252.29	4.1350	4.1351	0.8746	25.03	-0.04	0.050			
0.0517	3308.91	4.1340	4.1341	0.8734	25.02	-0.05	0.050			
0.0526	3364.57	4.1330	4.1332	0.8737	25.01	-0.06	0.050			
0.0534	3420.21	4.1320	4.1321	0.8726	25.00	-0.07	0.050			
0.0543	3475.07	4.1310	4.1311	0.8707	24.98	-0.09	0.050			
0.0552	3530.41	4.1300	4.1301	0.8717	24.97	-0.10	0.050			
0.0560	3585.72	4.1290	4.1290	0.8746	24.95	-0.12	0.050			
0.0569	3640.48	4.1280	4.1278	0.8739	24.95	-0.12	0.050			
0.0577	3695.84	4.1270	4.1271	0.8749	24.95	-0.12	0.050			
0.0586	3751.80	4.1260	4.1259	0.8747	24.95	-0.12	0.050			
0.0595	3807.58	4.1250	4.1250	0.8751	24.95	-0.12	0.050			
0.0604	3863.13	4.1240	4.1238	0.8744	24.95	-0.12	0.050			
0.0612	3919.63	4.1230	4.1229	0.8764	24.94	-0.13	0.050			
0.0621	3976.75	4.1220	4.1221	0.8794	24.95	-0.12	0.050			
0.0630	4034.37	4.1210	4.1207	0.8791	24.95	-0.12	0.050			
0.0639	4091.19	4.1200	4.1201	0.8806	24.95	-0.12	0.050			
0.0648	4147.80	4.1190	4.1190	0.8802	24.95	-0.12	0.050			
0.0657	4204.60	4.1180	4.1181	0.8809	24.95	-0.12	0.050			
0.0666	4261.16	4.1170	4.1171	0.8792	24.96	-0.11	0.050			
0.0675	4317.83	4.1160	4.1161	0.8777	24.96	-0.11	0.050			
0.0683	4374.27	4.1150	4.1151	0.8755	24.97	-0.10	0.050			
0.0692	4430.03	4.1140	4.1139	0.8743	24.97	-0.10	0.050			
0.0701	4485.55	4.1130	4.1130	0.8701	24.96	-0.11	0.050			
0.0709	4540.73	4.1120	4.1120	0.8670	24.95	-0.12	0.050			
0.0718	4595.90	4.1110	4.1107	0.8664	24.95	-0.12	0.050			
0.0727	4650.53	4.1100	4.1101	0.8645	24.95	-0.12	0.050			
0.0735	4705.22	4.1090	4.1091	0.8643	24.94	-0.13	0.050			
0.0744	4759.86	4.1080	4.1080	0.8661	24.92	-0.15	0.050			
0.0752	4814.29	4.1070	4.1070	0.8712	24.91	-0.16	0.050			
0.0761	4869.65	4.1060	4.1059	0.8744	24.91	-0.16	0.050			
0.0770	4925.72	4.1050	4.1049	0.8781	24.90	-0.17	0.050			
0.0778	4981.51	4.1040	4.1040	0.8793	24.89	-0.18	0.050			
0.0787	5038.04	4.1030	4.1029	0.8817	24.89	-0.18	0.050			
0.0796	5094.83	4.1020	4.1019	0.8856	24.89	-0.18	0.050			
0.0805	5151.54	4.1010	4.1009	0.8886	24.89	-0.18	0.050			
0.0814	5208.44	4.1000	4.0998	0.8901	24.89	-0.18	0.050	-0.089	0.428	
0.0823	5266.66	4.0990	4.0989	0.8900	24.89	-0.18	0.050			
0.0832	5324.32	4.0980	4.0978	0.8918	24.91	-0.16	0.050			
0.0841	5381.71	4.0970	4.0971	0.8935	24.91	-0.16	0.050			
0.0850	5440.15	4.0960	4.0960	0.8958	24.92	-0.15	0.050			
0.0859	5498.13	4.0950	4.0952	0.8955	24.93	-0.14	0.050			
0.0868	5556.21	4.0940	4.0939	0.8944	24.93	-0.14	0.050			
0.0877	5614.11	4.0930	4.0929	0.8938	24.93	-0.14	0.050			
0.0886	5671.05	4.0920	4.0920	0.8929	24.93	-0.14	0.050			
0.0895	5727.67	4.0910	4.0911	0.8906	24.94	-0.13	0.050			
0.0904	5784.27	4.0900	4.0900	0.8889	24.95	-0.12	0.050			
0.0913	5841.06	4.0890	4.0889	0.8855	24.97	-0.10	0.050			
0.0921	5896.94	4.0880	4.0879	0.8832	24.97	-0.10	0.050			
0.0930	5952.16	4.0870	4.0872	0.8816	25.00	-0.07	0.050			
0.0939	6008.82	4.0860	4.0861	0.8817	25.01	-0.06	0.050			
0.0948	6065.55	4.0850	4.0851	0.8815	25.02	-0.05	0.050			
0.0957	6122.55	4.0840	4.0839	0.8811	25.03	-0.04	0.050			
0.0965	6178.91	4.0830	4.0830	0.8794	25.04	-0.03	0.050			
0.0974	6235.20	4.0820	4.0820	0.8765	25.05	-0.02	0.050			
0.0983	6291.59	4.0810	4.0812	0.8754	25.07	0.00	0.050			
0.0992	6347.62	4.0800	4.0801	0.8751	25.08	0.01	0.050			
0.1001	6403.74	4.0790	4.0789	0.8757	25.10	0.03	0.050			
0.1009	6459.61	4.0780	4.0780	0.8746	25.11	0.04	0.050			
0.1018	6514.64	4.0770	4.0770	0.8734	25.12	0.05	0.050	0.502	0.405	
0.1027	6570.71	4.0760	4.0761	0.8749	25.14	0.07	0.050			
0.1035	6626.20	4.0750	4.0751	0.8757	25.15	0.08	0.050			
0.1044	6681.74	4.0740	4.0740	0.8776	25.15	0.08	0.050			
0.1053	6737.07	4.0730	4.0731	0.8805	25.15	0.08	0.050			
0.1061	6792.43	4.0720	4.0719	0.8810	25.15	0.08	0.050			
0.1070	6848.31	4.0710	4.0709	0.8858	25.15	0.08	0.050			
0.1079	6904.80	4.0700	4.0700	0.8887	25.15	0.08	0.050			
0.1088	6962.14	4.0690	4.0689	0.8919	25.15	0.08	0.050			
0.1097	7019.79	4.0680	4.0679	0.8934	25.15	0.08	0.050			
0.1106	7076.74	4.0670	4.0669	0.8955	25.15	0.08	0.050			
0.1115	7135.50	4.0660	4.0660	0.8971	25.15	0.08	0.050			
0.1124	7193.83	4.0650	4.0649	0.9000	25.14	0.07	0.050			
0.1133	7252.16	4.0640	4.0641	0.9006	25.14	0.07	0.050			
0.1142	7310.37	4.0630	4.0630	0.9021	25.13	0.06	0.050			
0.1151	7368.28	4.0620	4.0620	0.9043	25.14	0.07	0.050			
0.1160	7426.54	4.0610	4.0611	0.9046	25.13	0.06	0.050			
0.1169	7483.96	4.0600	4.0601	0.9047	25.13	0.06	0.050			
0.1178	7542.03	4.0590	4.0590	0.9050	25.13	0.06	0.050			
0.1187	7599.67	4.0580	4.0580	0.9044	25.11	0.04	0.050			
0.1196	7657.38	4.0570	4.0571	0.9049	25.11	0.04	0.050			
0.1205	7714.94	4.0560	4.0558	0.9048	25.11	0.04	0.050			
0.1214	7772.68	4.0550	4.0551	0.9033	25.11	0.04	0.050	0.403	0.340	
0.1223	7830.31	4.0540	4.0539	0.9037	25.10	0.03	0.050			
0.1232	7887.56	4.0530	4.0529	0.9032	25.10	0.03	0.050			
0.1241	7945.36	4.0520	4.0521	0.9051	25.10	0.03	0.050			
0.1251	8003.33	4.0510	4.0511	0.9050	25.10	0.03	0.050			
0.1260	8061.63	4.0500	4.0502	0.9067	25.10	0.03	0.050			
0.1269	8119.97	4.0490	4.0489	0.9094	25.11	0.04	0.050			
0.1278	8178.50	4.0480	4.0481	0.9105	25.11	0.04	0.050			
0.1287	8236.93	4.0470	4.0469	0.9110	25.11	0.04	0.050			
0.1296	8295.07	4.0460	4.0461	0.9144	25.11	0.04	0.050			
0.1305	8353.64	4.0450	4.0449	0.9145	25.12	0.05	0.050			
0.1314	8412.20	4.0440	4.0440	0.9139	25.12	0.05	0.050			
0.1324	8470.45	4.0430	4.0430	0.9147	25.11	0.04	0.050			
0.1333	8528.55	4.0420	4.0420	0.9149	25.12	0.05	0.050			
0.1342	8587.35	4.0410	4.0411	0.9162	25.11	0.04	0.050			
0.1351	8646.21	4.0400	4.0399	0.9162	25.12	0.05	0.050			
0.1360	8705.24	4.0390	4.0390	0.9185	25.12	0.05	0.050			
0.1369	8763.62	4.0380	4.0380	0.9203	25.12	0.05	0.050			
0.1378	8822.31	4.0370	4.0370	0.9224	25.13	0.06	0.050			
0.1388	8881.14	4.0360	4.0361	0.9245	25.11	0.04	0.050			
0.1397	8940.66	4.0350	4.0351	0.9271	25.11	0.04	0.050			
0.1406	9000.46	4.0340	4.0338	0.9272	25.11	0.04	0.050			
0.1416	9059.76	4.0330	4.0331	0.9274	25.10	0.03	0.050			
0.1425	9119.54	4.0320	4.0320	0.9277	25.08	0.01	0.050			
0.1434	9179.18	4.0310	4.0310	0.9291	25.06	-0.01	0.050			
0.1444	9238.98	4.0300	4.0298	0.9286	25.05	-0.02	0.050			
0.1453	9298.12	4.0290	4.0290	0.9287	25.04	-0.03	0.050			
0.1462	9357.65	4.0280	4.0278	0.9294	25.02	-0.05	0.050			
0.1471	9417.51	4.0270	4.0272	0.9290	25.01	-0.06	0.050			
0.1481	9475.94	4.0260	4.0260	0.9315	25.00	-0.07	0.050			
0.1490	9535.65	4.0250	4.0251	0.9344	24.97	-0.10	0.050			
0.1499	9595.10	4.0240	4.0240	0.9381	24.95	-0.12	0.050			
0.1509	9654.61	4.0230	4.0231	0.9391	24.94	-0.13	0.050			
0.1518	9714.82	4.0220	4.0220	0.9417	24.93	-0.14	0.050			
0.1527	9775.25	4.0210	4.0211	0.9430	24.91	-0.16	0.050			
0.1537	9835.57	4.0200	4.0199	0.9443	24.89	-0.18	0.050			
0.1546	9896.09	4.0190	4.0191	0.9467	24.87	-0.20	0.050			
0.1556	9956.31	4.0180	4.0179	0.9467	24.85	-0.22	0.050			
0.1565	10017.21	4.0170	4.0169	0.9486	24.84	-0.23	0.050			
0.1575	10078.38	4.0160	4.0160	0.9511	24.82	-0.25	0.050			
0.1584	10140.37	4.0150	4.0151	0.9531	24.81	-0.26	0.050			
0.1594	10201.94	4.0140	4.0140	0.9554	24.80	-0.27	0.050			
0.1604	10263.87	4.0130	4.0131	0.9549	24.78	-0.29	0.050			
0.1613	10325.25	4.0120	4.0120	0.9551	24.77	-0.30	0.050	0.397	0.512	
0.1623	10386.83	4.0110	4.0109	0.9547	24.77	-0.30	0.050			
0.1633	10448.03	4.0100	4.0100	0.9542	24.77	-0.30	0.050			
0.1642	10508.95	4.0090	4.0091	0.9527	24.77	-0.30	0.050			
0.1652	10569.92	4.0080	4.0081	0.9506	24.77	-0.30	0.050			
0.1661	10630.27	4.0070	4.0070	0.9493	24.77	-0.30	0.050			
0.1670	10689.91	4.0060	4.0060	0.9467	24.77	-0.30	0.050			
0.1680	10750.13	4.0050	4.0051	0.9480	24.77	-0.30	0.050			
0.1689	10810.50	4.0040	4.0041	0.9491	24.79	-0.28	0.050			
0.1699	10871.29	4.0030	4.0028	0.9503	24.79	-0.28	0.050			
0.1708	10932.32	4.0020	4.0021	0.9509	24.80	-0.27	0.050			
0.1718	10993.26	4.0010	4.0009	0.9504	24.81	-0.26	0.050			
0.1727	11053.43	4.0000	4.0001	0.9529	24.81	-0.26	0.050			
0.1737	11114.03	3.9990	3.9989	0.9536	24.80	-0.27	0.050			
0.1746	11175.03	3.9980	3.9980	0.9571	24.80	-0.27	0.050			
0.1756	11236.25	3.9970	3.9969	0.9581	24.79	-0.28	0.050			
0.1765	11297.55	3.9960	3.9961	0.9608	24.79	-0.28	0.050			
0.1775	11359.30	3.9950	3.9950	0.9629	24.79	-0.28	0.050			
0.1785	11421.38	3.9940	3.9942	0.9657	24.79	-0.28	0.050			
0.1794	11483.72	3.9930	3.9929	0.9667	24.79	-0.28	0.050			
0.1804	11545.38	3.9920	3.9919	0.9674	24.79	-0.28	0.050			
0.1814	11607.77	3.9910	3.9909	0.9695	24.79	-0.28	0.050	0.064	0.430	
0.1823	11669.60	3.9900	3.9901	0.9711	24.77	-0.30	0.050			
0.1833	11731.76	3.9890	3.9890	0.9745	24.77	-0.30	0.050			
0.1843	11793.96	3.9880	3.9880	0.9753	24.77	-0.30	0.050			
0.1853	11856.67	3.9870	3.9870	0.9757	24.77	-0.30	0.050			
0.1862	11919.18	3.9860	3.9860	0.9761	24.77	-0.30	0.050			
0.1872	11982.03	3.9850	3.9850	0.9766	24.76	-0.31	0.050			
0.1882	12045.06	3.9840	3.9840	0.9773	24.75	-0.32	0.050			
0.1892	12108.58	3.9830	3.9829	0.9780	24.74	-0.33	0.050			
0.1902	12171.45	3.9820	3.9819	0.9755	24.73	-0.34	0.050			
0.1912	12233.85	3.9810	3.9808	0.9749	24.72	-0.35	0.050			
0.1921	12295.58	3.9800	3.9800	0.9726	24.69	-0.38	0.050			
0.1931	12358.31	3.9790	3.9791	0.9727	24.69	-0.38	0.050			
0.1941	12420.01	3.9780	3.9781	0.9738	24.67	-0.40	0.050			
0.1950	12482.13	3.9770	3.9770	0.9752	24.67	-0.40	0.050			
0.1960	12544.67	3.9760	3.9762	0.9740	24.66	-0.41	0.050			
0.1970	12606.64	3.9750	3.9749	0.9739	24.67	-0.40	0.050			
0.1980	12669.19	3.9740	3.9739	0.9741	24.67	-0.40	0.050			
0.1989	12731.22	3.9730	3.9730	0.9745	24.68	-0.39	0.050			
0.1999	12793.42	3.9720	3.9718	0.9746	24.69	-0.38	0.050			
0.2009	12854.99	3.9710	3.9710	0.9745	24.69	-0.38	0.050			
0.2018	12917.00	3.9700	3.9700	0.9755	24.70	-0.37	0.050			
0.2028	12979.29	3.9690	3.9690	0.9763	24.71	-0.36	0.050			
0.2038	13042.10	3.9680	3.9681	0.9779	24.72	-0.35	0.050			
0.2048	13105.10	3.9670	3.9671	0.9799	24.73	-0.34	0.050			
0.2057	13167.47	3.9660	3.9660	0.9825	24.75	-0.32	0.050			
0.2067	13230.84	3.9650	3.9650	0.9862	24.78	-0.29	0.050			
0.2077	13294.07	3.9640	3.9641	0.9869	24.80	-0.27	0.050			
0.2087	13357.80	3.9630	3.9630	0.9877	24.83	-0.24	0.050			
0.2097	13421.35	3.9620	3.9619	0.9880	24.85	-0.22	0.050			
0.2107	13484.48	3.9610	3.9610	0.9876	24.87	-0.20	0.050			
0.2117	13547.64	3.9600	3.9600	0.9882	24.90	-0.17	0.050			
0.2127	13610.84	3.9590	3.9590	0.9875	24.92	-0.15	0.050			
0.2137	13673.91	3.9580	3.9579	0.9878	24.94	-0.13	0.050			
0.2147	13737.85	3.9570	3.9570	0.9886	24.97	-0.10	0.050			
0.2156	13801.28	3.9560	3.9560	0.9887	25.00	-0.07	0.050			
0.2166	13864.74	3.9550	3.9550	0.9889	24.99	-0.08	0.050			
0.2176	13928.15	3.9540	3.9540	0.9884	24.99	-0.08	0.050			
0.2186	13990.91	3.9530	3.9529	0.9892	24.99	-0.08	0.050			
0.2196	14053.87	3.9520	3.9520	0.9902	24.98	-0.09	0.050			
0.2206	14116.54	3.9510	3.9509	0.9923	24.98	-0.09	0.050			
0.2216	14179.47	3.9500	3.9502	0.9946	24.98	-0.09	0.050			
0.2225	14242.59	3.9490	3.9490	0.9975	24.97	-0.10	0.050			
0.2235	14305.65	3.9480	3.9481	1.0018	24.97	-0.10	0.050			
0.2245	14369.68	3.9470	3.9470	1.0047	24.97	-0.10	0.050			
0.2255	14434.19	3.9460	3.9460	1.0057	24.97	-0.10	0.050			
0.2266	14499.38	3.9450	3.9450	1.0075	24.96	-0.11	0.050			
0.2276	14565.40	3.9440	3.9439	1.0059	24.96	-0.11	0.050			
0.2286	14631.06	3.9430	3.9429	1.0059	24.95	-0.12	0.050			
0.2296	14695.79	3.9420	3.9420	1.0057	24.95	-0.12	0.050			
0.2306	14760.05	3.9410	3.9411	1.0073	24.95	-0.12	0.050			
0.2316	14824.48	3.9400	3.9401	1.0095	24.95	-0.12	0.050			
0.2326	14889.38	3.9390	3.9392	1.0111	24.95	-0.12	0.050			
0.2337	14954.05	3.9380	3.9382	1.0115	24.95	-0.12	0.050			
0.2347	15018.76	3.9370	3.9372	1.0117	24.95	-0.12	0.050			
0.2357	15083.33	3.9360	3.9361	1.0125	24.95	-0.12	0.050			
0.2367	15147.76	3.9350	3.9350	1.0127	24.95	-0.12	0.050			
0.2377	15211.90	3.9340	3.9339	1.0136	24.95	-0.12	0.050			
0.2387	15275.61	3.9330	3.9328	1.0128	24.95	-0.12	0.050			
0.2397	15340.14	3.9320	3.9320	1.0132	24.97	-0.10	0.050			
0.2407	15404.48	3.9310	3.9311	1.0146	24.97	-0.10	0.050			
0.2417	15469.17	3.9300	3.9301	1.0157	24.98	-0.09	0.050			
0.2427	15534.38	3.9290	3.9291	1.0185	24.97	-0.10	0.050			
0.2437	15599.59	3.9280	3.9280	1.0216	24.97	-0.10	0.050			
0.2448	15666.50	3.9270	3.9270	1.0265	24.98	-0.09	0.050			
0.2458	15733.60	3.9260	3.9261	1.0291	24.97	-0.10	0.050			
0.2469	15800.11	3.9250	3.9249	1.0308	24.97	-0.10	0.050			
0.2479	15866.82	3.9240	3.9240	1.0307	24.97	-0.10	0.050			
0.2489	15932.40	3.9230	3.9230	1.0296	24.97	-0.10	0.050			
0.2500	15997.85	3.9220	3.9219	1.0287	24.95	-0.12	0.050			
0.2510	16063.23	3.9210	3.9211	1.0275	24.95	-0.12	0.050			
0.2520	16129.08	3.9200	3.9200	1.0282	24.95	-0.12	0.050			
0.2530	16194.78	3.9190	3.9190	1.0282	24.95	-0.12	0.050			
0.2541	16261.00	3.9180	3.9180	1.0296	24.95	-0.12	0.050			
0.2551	16326.85	3.9170	3.9170	1.0289	24.95	-0.12	0.050			
0.2561	16392.76	3.9160	3.9160	1.0283	24.94	-0.13	0.050			
0.2572	16458.11	3.9150	3.9150	1.0293	24.93	-0.14	0.050			
0.2582	16523.15	3.9140	3.9139	1.0309	24.93	-0.14	0.050			
0.2592	16588.87	3.9130	3.9129	1.0324	24.91	-0.16	0.050			
0.2602	16655.30	3.9120	3.9121	1.0333	24.91	-0.16	0.050			
0.2613	16721.22	3.9110	3.9109	1.0337	24.90	-0.17	0.050			
0.2623	16787.42	3.9100	3.9100	1.0359	24.89	-0.18	0.050			
0.2633	16853.32	3.9090	3.9090	1.0379	24.88	-0.19	0.050			
0.2644	16920.15	3.9080	3.9080	1.0390	24.87	-0.20	0.050			
0.2654	16987.09	3.9070	3.9069	1.0408	24.85	-0.22	0.050			
0.2665	17054.01	3.9060	3.9060	1.0426	24.85	-0.22	0.050			
0.2675	17121.07	3.9050	3.9050	1.0434	24.86	-0.21	0.050			
0.2686	17188.13	3.9040	3.9041	1.0437	24.86	-0.21	0.050			
0.2696	17254.84	3.9030	3.9031	1.0438	24.86	-0.21	0.050			
0.2707	17321.74	3.9020	3.9019	1.0436	24.87	-0.20	0.050			
0.2717	17389.15	3.9010	3.9009	1.0439	24.87	-0.20	0.050			
0.2727	17455.92	3.9000	3.9000	1.0447	24.89	-0.18	0.050			
0.2738	17523.33	3.8990	3.8990	1.0435	24.90	-0.17	0.050			
0.2748	17590.22	3.8980	3.8979	1.0430	24.91	-0.16	0.050			
0.2759	17657.00	3.8970	3.8970	1.0432	24.92	-0.15	0.050			
0.2769	17723.44	3.8960	3.8960	1.0418	24.94	-0.13	0.050			
0.2780	17789.30	3.8950	3.8950	1.0409	24.94	-0.13	0.050			
0.2790	17855.45	3.8940	3.8940	1.0416	24.94	-0.13	0.050			
0.2800	17922.09	3.8930	3.8931	1.0434	24.94	-0.13	0.050			
0.2811	17988.86	3.8920	3.8919	1.0455	24.94	-0.13	0.050			
0.2821	18055.19	3.8910	3.8910	1.0458	24.93	-0.14	0.050	0.404	0.512	
0.2832	18121.68	3.8900	3.8900	1.0479	24.93	-0.14	0.050			
0.2842	18188.53	3.8890	3.8890	1.0497	24.93	-0.14	0.050			
0.2852	18255.77	3.8880	3.8880	1.0536	24.92	-0.15	0.050			
0.2863	18323.21	3.8870	3.8870	1.0555	24.92	-0.15	0.050			
0.2874	18390.81	3.8860	3.8858	1.0574	24.91	-0.16	0.050			
0.2884	18458.85	3.8850	3.8851	1.0601	24.91	-0.16	0.050			
0.2895	18527.20	3.8840	3.8839	1.0613	24.91	-0.16	0.050			
0.2905	18595.08	3.8830	3.8831	1.0641	24.91	-0.16	0.050			
0.2916	18663.68	3.8820	3.8821	1.0667	24.92	-0.15	0.050			
0.2927	18732.00	3.8810	3.8810	1.0679	24.91	-0.16	0.050			
0.2938	18800.62	3.8800	3.8800	1.0702	24.91	-0.16	0.050			
0.2948	18869.47	3.8790	3.8790	1.0741	24.90	-0.17	0.050			
0.2959	18938.32	3.8780	3.8782	1.0751	24.89	-0.18	0.050			
0.2970	19007.10	3.8770	3.8770	1.0754	24.87	-0.20	0.050			
0.2981	19075.89	3.8760	3.8759	1.0774	24.85	-0.22	0.050			
0.2991	19144.68	3.8750	3.8750	1.0775	24.84	-0.23	0.050			
0.3002	19214.19	3.8740	3.8739	1.0775	24.84	-0.23	0.050			
0.3013	19283.17	3.8730	3.8729	1.0788	24.83	-0.24	0.050	0.390	0.476	
0.3024	19352.26	3.8720	3.8719	1.0792	24.83	-0.24	0.050			
0.3035	19421.25	3.8710	3.8710	1.0805	24.84	-0.23	0.050			
0.3045	19490.14	3.8700	3.8699	1.0817	24.84	-0.23	0.050			
0.3056	19559.40	3.8690	3.8690	1.0834	24.83	-0.24	0.050			
0.3067	19628.50	3.8680	3.8680	1.0853	24.85	-0.22	0.050			
0.3078	19698.52	3.8670	3.8669	1.0873	24.85	-0.22	0.050			
0.3089	19767.78	3.8660	3.8661	1.0896	24.85	-0.22	0.050			
0.3100	19837.69	3.8650	3.8650	1.0907	24.85	-0.22	0.050			
0.3111	19907.59	3.8640	3.8639	1.0915	24.85	-0.22	0.050			
0.3121	19976.94	3.8630	3.8630	1.0928	24.85	-0.22	0.050			
0.3132	20047.13	3.8620	3.8620	1.0945	24.85	-0.22	0.050			
0.3143	20117.19	3.8610	3.8610	1.0956	24.85	-0.22	0.050			
0.3154	20187.22	3.8600	3.8600	1.0969	24.84	-0.23	0.050			
0.3165	20257.43	3.8590	3.8590	1.0986	24.85	-0.22	0.050			
0.3176	20328.06	3.8580	3.8580	1.1015	24.85	-0.22	0.050			
0.3187	20398.78	3.8570	3.8569	1.1035	24.85	-0.22	0.050			
0.3198	20469.40	3.8560	3.8560	1.1045	24.85	-0.22	0.050			
0.3209	20540.51	3.8550	3.8550	1.1070	24.86	-0.21	0.050			
0.3221	20611.74	3.8540	3.8541	1.1083	24.85	-0.22	0.050	0.426	0.382	
0.3232	20682.40	3.8530	3.8530	1.1096	24.86	-0.21	0.050			
0.3243	20753.07	3.8520	3.8518	1.1111	24.87	-0.20	0.050			
0.3254	20823.82	3.8510	3.8509	1.1124	24.85	-0.22	0.050			
0.3265	20894.88	3.8500	3.8500	1.1142	24.85	-0.22	0.050			
0.3276	20966.07	3.8490	3.8490	1.1172	24.85	-0.22	0.050			
0.3287	21037.87	3.8480	3.8480	1.1181	24.84	-0.23	0.050			
0.3298	21109.77	3.8470	3.8470	1.1205	24.83	-0.24	0.050			
0.3310	21181.48	3.8460	3.8460	1.1214	24.83	-0.24	0.050			
0.3321	21253.47	3.8450	3.8451	1.1227	24.83	-0.24	0.050			
0.3332	21325.74	3.8440	3.8440	1.1246	24.83	-0.24	0.050			
0.3343	21397.79	3.8430	3.8430	1.1251	24.83	-0.24	0.050			
0.3355	21469.92	3.8420	3.8420	1.1282	24.83	-0.24	0.050			
0.3366	21541.29	3.8410	3.8411	1.1329	24.85	-0.22	0.050			
0.3377	21613.28	3.8400	3.8401	1.1364	24.86	-0.21	0.050			
0.3388	21685.26	3.8390	3.8390	1.1415	24.87	-0.20	0.050			
0.3400	21757.90	3.8380	3.8379	1.1463	24.87	-0.20	0.050			
0.3411	21831.26	3.8370	3.8369	1.1511	24.89	-0.18	0.050			
0.3423	21905.09	3.8360	3.8359	1.1552	24.89	-0.18	0.050	0.203	0.516	
0.3434	21979.65	3.8350	3.8350	1.1579	24.92	-0.15	0.050			
0.3446	22053.92	3.8340	3.8340	1.1619	24.94	-0.13	0.050			
0.3458	22128.37	3.8330	3.8330	1.1650	24.95	-0.12	0.050			
0.3469	22202.24	3.8320	3.8320	1.1723	24.96	-0.11	0.050			
0.3481	22277.50	3.8310	3.8311	1.1783	24.96	-0.11	0.050			
0.3493	22353.37	3.8300	3.8301	1.1834	24.96	-0.11	0.050			
0.3505	22429.73	3.8290	3.8290	1.1884	24.95	-0.12	0.050			
0.3517	22507.06	3.8280	3.8281	1.1933	24.95	-0.12	0.050			
0.3529	22583.94	3.8270	3.8271	1.1968	24.96	-0.11	0.050			
0.3541	22660.57	3.8260	3.8259	1.2014	24.95	-0.12	0.050			
0.3553	22737.59	3.8250	3.8249	1.2061	24.95	-0.12	0.050			
0.3565	22814.37	3.8240	3.8239	1.2118	24.95	-0.12	0.050			
0.3577	22891.86	3.8230	3.8229	1.2151	24.95	-0.12	0.050			
0.3589	22969.27	3.8220	3.8221	1.2169	24.95	-0.12	0.050			
0.3601	23046.71	3.8210	3.8210	1.2201	24.95	-0.12	0.050			
0.3613	23125.16	3.8200	3.8200	1.2255	24.93	-0.14	0.050	0.342	0.431	
0.3626	23203.88	3.8190	3.8191	1.2294	24.93	-0.14	0.050			
0.3638	23283.17	3.8180	3.8178	1.2350	24.91	-0.16	0.050			
0.3650	23362.95	3.8170	3.8169	1.2406	24.91	-0.16	0.050			
0.3663	23442.36	3.8160	3.8160	1.2474	24.89	-0.18	0.050			
0.3675	23522.31	3.8150	3.8150	1.2517	24.89	-0.18	0.050			
0.3688	23602.65	3.8140	3.8140	1.2530	24.89	-0.18	0.050			
0.3701	23683.31	3.8130	3.8130	1.2550	24.90	-0.17	0.050			
0.3713	23763.20	3.8120	3.8120	1.2579	24.93	-0.14	0.050			
0.3726	23844.36	3.8110	3.8111	1.2628	24.94	-0.13	0.050			
0.3738	23926.24	3.8100	3.8100	1.2663	24.96	-0.11	0.050			
0.3751	24007.64	3.8090	3.8089	1.2688	24.97	-0.10	0.050			
0.3764	24089.36	3.8080	3.8079	1.2700	25.00	-0.07	0.050			
0.3777	24171.40	3.8070	3.8070	1.2680	25.02	-0.05	0.050			
0.3789	24252.62	3.8060	3.8061	1.2667	25.03	-0.04	0.050			
0.3802	24334.41	3.8050	3.8051	1.2650	25.01	-0.06	0.050			
0.3815	24416.01	3.8040	3.8039	1.2624	25.02	-0.05	0.050	0.009	0.382	
0.3828	24498.21	3.8030	3.8030	1.2602	25.01	-0.06	0.050			
0.3841	24579.41	3.8020	3.8021	1.2560	25.01	-0.06	0.050			
0.3853	24660.64	3.8010	3.8010	1.2485	25.01	-0.06	0.050			
0.3866	24741.28	3.8000	3.7999	1.2403	25.00	-0.07	0.050			
0.3878	24821.40	3.7990	3.7991	1.2308	25.00	-0.07	0.050			
0.3891	24900.29	3.7980	3.7981	1.2209	25.00	-0.07	0.050			
0.3903	24979.19	3.7970	3.7969	1.2117	24.97	-0.10	0.050			
0.3915	25056.61	3.7960	3.7961	1.1983	24.96	-0.11	0.050			
0.3927	25134.58	3.7950	3.7949	1.1860	24.95	-0.12	0.050			
0.3939	25211.47	3.7940	3.7940	1.1707	24.94	-0.13	0.050			
0.3951	25286.42	3.7930	3.7930	1.1528	24.93	-0.14	0.050			
0.3963	25360.35	3.7920	3.7920	1.1318	24.91	-0.16	0.050			
0.3974	25433.28	3.7910	3.7907	1.1126	24.90	-0.17	0.050			
0.3985	25504.69	3.7900	3.7900	1.0931	24.89	-0.18	0.050			
0.3996	25574.68	3.7890	3.7891	1.0708	24.87	-0.20	0.050			
0.4007	25643.57	3.7880	3.7881	1.0490	24.87	-0.20	0.050			
0.4017	25710.80	3.7870	3.7870	1.0263	24.86	-0.21	0.050			
0.4027	25775.52	3.7860	3.7861	1.0018	24.87	-0.20	0.050			
0.4037	25839.10	3.7850	3.7849	0.9793	24.87	-0.20	0.050			
0.4047	25900.49	3.7840	3.7841	0.9553	24.87	-0.20	0.050			
0.4056	25960.39	3.7830	3.7830	0.9316	24.89	-0.18	0.050			
0.4065	26018.98	3.7820	3.7820	0.9101	24.89	-0.18	0.050			
0.4074	26075.98	3.7810	3.7809	0.8892	24.91	-0.16	0.050			
0.4083	26131.27	3.7800	3.7801	0.8667	24.91	-0.16	0.050			
0.4091	26184.65	3.7790	3.7790	0.8463	24.92	-0.15	0.050			
0.4100	26237.41	3.7780	3.7779	0.8290	24.93	-0.14	0.050			
0.4107	26287.91	3.7770	3.7770	0.8094	24.93	-0.14	0.050			
0.4115	26338.80	3.7760	3.7760	0.7957	24.93	-0.14	0.050			
0.4123	26388.24	3.7750	3.7750	0.7845	24.95	-0.12	0.050			
0.4131	26436.56	3.7740	3.7739	0.7717	24.95	-0.12	0.050			
0.4138	26484.61	3.7730	3.7730	0.7618	24.95	-0.12	0.050			
0.4146	26531.78	3.7720	3.7720	0.7525	24.96	-0.11	0.050			
0.4153	26578.65	3.7710	3.7709	0.7450	24.95	-0.12	0.050			
0.4160	26624.48	3.7700	3.7700	0.7378	24.95	-0.12	0.050			
0.4167	26670.59	3.7690	3.7690	0.7353	24.95	-0.12	0.050			
0.4175	26716.92	3.7680	3.7681	0.7331	24.95	-0.12	0.050			
0.4182	26762.56	3.7670	3.7669	0.7319	24.95	-0.12	0.050			
0.4189	26807.03	3.7660	3.7660	0.7329	24.94	-0.13	0.050			
0.4196	26852.95	3.7650	3.7650	0.7353	24.94	-0.13	0.050			
0.4203	26899.12	3.7640	3.7641	0.7389	24.93	-0.14	0.050			
0.4210	26945.90	3.7630	3.7630	0.7443	24.93	-0.14	0.050			
0.4218	26992.29	3.7620	3.7619	0.7513	24.93	-0.14	0.050			
0.4225	27040.02	3.7610	3.7610	0.7589	24.93	-0.14	0.050			
0.4233	27088.32	3.7600	3.7600	0.7660	24.93	-0.14	0.050			
0.4240	27137.10	3.7590	3.7589	0.7765	24.93	-0.14	0.050			
0.4248	27186.43	3.7580	3.7579	0.7859	24.92	-0.15	0.050			
0.4256	27236.57	3.7570	3.7569	0.7978	24.92	-0.15	0.050			
0.4264	27287.43	3.7560	3.7561	0.8111	24.92	-0.15	0.050			
0.4272	27338.81	3.7550	3.7550	0.8233	24.92	-0.15	0.050			
0.4280	27391.17	3.7540	3.7541	0.8380	24.91	-0.16	0.050			
0.4288	27444.37	3.7530	3.7530	0.8545	24.92	-0.15	0.050			
0.4297	27499.12	3.7520	3.7521	0.8709	24.91	-0.16	0.050			
0.4305	27555.06	3.7510	3.7510	0.8880	24.92	-0.15	0.050			
0.4314	27612.30	3.7500	3.7499	0.9051	24.92	-0.15	0.050			
0.4323	27670.21	3.7490	3.7489	0.9223	24.93	-0.14	0.050			
0.4333	27729.51	3.7480	3.7480	0.9393	24.93	-0.14	0.050			
0.4342	27789.99	3.7470	3.7470	0.9572	24.93	-0.14	0.050			
0.4352	27850.76	3.7460	3.7461	0.9764	24.93	-0.14	0.050			
0.4362	27913.69	3.7450	3.7450	0.9976	24.94	-0.13	0.050			
0.4372	27978.20	3.7440	3.7440	1.0177	24.95	-0.12	0.050			
0.4382	28044.26	3.7430	3.7431	1.0373	24.97	-0.10	0.050			
0.4392	28111.24	3.7420	3.7420	1.0575	24.98	-0.09	0.050			
0.4403	28179.24	3.7410	3.7411	1.0803	25.00	-0.07	0.050			
0.4414	28248.94	3.7400	3.7400	1.1022	25.00	-0.07	0.050	0.240	0.417	
0.4425	28320.08	3.7390	3.7390	1.1229	25.01	-0.06	0.050			
0.4436	28392.69	3.7380	3.7379	1.1436	25.03	-0.04	0.050			
0.4448	28466.35	3.7370	3.7369	1.1650	25.03	-0.04	0.050			
0.4460	28542.49	3.7360	3.7360	1.1822	25.05	-0.02	0.050			
0.4472	28620.26	3.7350	3.7350	1.1975	25.06	-0.01	0.050			
0.4484	28697.91	3.7340	3.7338	1.2151	25.07	0.00	0.050			
0.4496	28776.64	3.7330	3.7329	1.2330	25.07	0.00	0.050			
0.4509	28856.02	3.7320	3.7321	1.2524	25.07	0.00	0.050			
0.4521	28936.52	3.7310	3.7311	1.2731	25.07	0.00	0.050			
0.4534	29018.74	3.7300	3.7301	1.2915	25.07	0.00	0.050			
0.4547	29101.87	3.7290	3.7291	1.3090	25.07	0.00	0.050			
0.4560	29185.64	3.7280	3.7279	1.3285	25.07	0.00	0.050			
0.4574	29270.56	3.7270	3.7271	1.3468	25.07	0.00	0.050			
0.4587	29355.67	3.7260	3.7259	1.3679	25.07	0.00	0.050			
0.4601	29443.50	3.7250	3.7248	1.3889	25.07	0.00	0.050			
0.4615	29533.06	3.7240	3.7240	1.4098	25.07	0.00	0.050			
0.4629	29623.84	3.7230	3.7229	1.4307	25.06	-0.01	0.050			
0.4643	29715.87	3.7220	3.7220	1.4471	25.05	-0.02	0.050			
0.4658	29809.10	3.7210	3.7212	1.4669	25.05	-0.02	0.050			
0.4672	29903.24	3.7200	3.7200	1.4917	25.03	-0.04	0.050			
0.4687	29999.27	3.7190	3.7190	1.5163	25.02	-0.05	0.050			
0.4703	30097.12	3.7180	3.7180	1.5407	25.00	-0.07	0.050			
0.4718	30197.28	3.7170	3.7171	1.5637	25.00	-0.07	0.050			
0.4734	30299.62	3.7160	3.7161	1.5872	25.00	-0.07	0.050			
0.4750	30402.04	3.7150	3.7150	1.6083	25.00	-0.07	0.050			
0.4766	30504.79	3.7140	3.7139	1.6269	25.00	-0.07	0.050			
0.4783	30609.28	3.7130	3.7130	1.6494	25.00	-0.07	0.050			
0.4799	30715.24	3.7120	3.7118	1.6703	25.01	-0.06	0.050			
0.4816	30823.11	3.7110	3.7108	1.6928	25.02	-0.05	0.050	-0.332	0.438	
0.4833	30931.97	3.7100	3.7101	1.7162	25.03	-0.04	0.050			
0.4850	31042.22	3.7090	3.7091	1.7380	25.03	-0.04	0.050			
0.4868	31153.48	3.7080	3.7079	1.7589	25.02	-0.05	0.050			
0.4885	31266.53	3.7070	3.7070	1.7829	25.03	-0.04	0.050			
0.4903	31380.58	3.7060	3.7060	1.8071	25.03	-0.04	0.050			
0.4922	31497.87	3.7050	3.7050	1.8320	25.03	-0.04	0.050			
0.4940	31617.02	3.7040	3.7040	1.8553	25.02	-0.05	0.050			
0.4959	31736.18	3.7030	3.7030	1.8783	25.01	-0.06	0.050			
0.4978	31857.26	3.7020	3.7021	1.9015	25.01	-0.06	0.050			
0.4997	31978.93	3.7010	3.7009	1.9204	24.99	-0.08	0.050			
0.5016	32101.90	3.7000	3.7000	1.9444	24.97	-0.10	0.050	-0.006	0.357	
0.5036	32227.53	3.6990	3.6990	1.9681	24.94	-0.13	0.050			
0.5055	32354.58	3.6980	3.6979	1.9931	24.95	-0.12	0.050			
0.5075	32482.72	3.6970	3.6971	2.0196	24.96	-0.11	0.050			
0.5096	32612.13	3.6960	3.6961	2.0442	24.97	-0.10	0.050			
0.5116	32742.95	3.6950	3.6949	2.0703	25.00	-0.07	0.050			
0.5137	32875.69	3.6940	3.6939	2.0962	25.01	-0.06	0.050			
0.5158	33010.53	3.6930	3.6931	2.1220	25.02	-0.05	0.050			
0.5179	33147.31	3.6920	3.6919	2.1462	25.03	-0.04	0.050			
0.5201	33285.09	3.6910	3.6910	2.1741	25.02	-0.05	0.050			
0.5223	33424.71	3.6900	3.6901	2.2008	25.01	-0.06	0.050	0.013	0.450	
0.5245	33565.86	3.6890	3.6891	2.2297	25.00	-0.07	0.050			
0.5267	33709.02	3.6880	3.6879	2.2589	24.99	-0.08	0.050			
0.5290	33853.47	3.6870	3.6870	2.2911	24.97	-0.10	0.050			
0.5313	34001.34	3.6860	3.6860	2.3205	24.96	-0.11	0.050			
0.5336	34151.03	3.6850	3.6849	2.3529	24.95	-0.12	0.050			
0.5360	34301.86	3.6840	3.6840	2.3854	24.95	-0.12	0.050			
0.5384	34454.64	3.6830	3.6830	2.4190	24.94	-0.13	0.050			
0.5408	34610.29	3.6820	3.6820	2.4518	24.94	-0.13	0.050	0.452	0.545	
0.5432	34767.79	3.6810	3.6811	2.4850	24.96	-0.11	0.050			
0.5457	34926.97	3.6800	3.6800	2.5204	24.97	-0.10	0.050			
0.5483	35090.08	3.6790	3.6790	2.5523	25.00	-0.07	0.050			
0.5509	35255.36	3.6780	3.6781	2.5830	25.02	-0.05	0.050			
0.5535	35421.75	3.6770	3.6770	2.6150	25.03	-0.04	0.050			
0.5561	35589.82	3.6760	3.6760	2.6516	25.03	-0.04	0.050			
0.5588	35760.13	3.6750	3.6749	2.6916	25.02	-0.05	0.050			
0.5615	35933.12	3.6740	3.6741	2.7342	25.02	-0.05	0.050	-0.359	0.463	
0.5642	36109.58	3.6730	3.6729	2.7711	25.01	-0.06	0.050			
0.5670	36287.73	3.6720	3.6721	2.8050	25.01	-0.06	0.050			
0.5698	36468.22	3.6710	3.6710	2.8418	25.00	-0.07	0.050			
0.5727	36650.87	3.6700	3.6701	2.8783	24.96	-0.11	0.050			
0.5756	36836.09	3.6690	3.6688	2.9172	24.96	-0.11	0.050			
0.5785	37023.62	3.6680	3.6679	2.9568	24.97	-0.10	0.050			
0.5815	37213.69	3.6670	3.6670	2.9990	25.00	-0.07	0.050			
0.5845	37406.26	3.6660	3.6661	3.0375	25.03	-0.04	0.050			
0.5875	37601.95	3.6650	3.6650	3.0768	25.04	-0.03	0.050			
0.5906	37801.06	3.6640	3.6640	3.1179	25.05	-0.02	0.050			
0.5938	38002.89	3.6630	3.6630	3.1514	25.05	-0.02	0.050			
0.5970	38207.42	3.6620	3.6620	3.1837	25.07	-0.00	0.050			
0.6003	38416.87	3.6610	3.6609	3.2086	25.06	-0.01	0.050			
0.6035	38621.77	3.6600	3.6600	3.2393	25.04	-0.03	0.050	0.395	0.522	
0.6066	38825.47	3.6590	3.6591	3.2812	25.00	-0.07	0.050			
0.6099	39036.29	3.6580	3.6579	3.3223	24.97	-0.10	0.050			
0.6133	39250.91	3.6570	3.6571	3.3643	24.97	-0.10	0.050			
0.6167	39467.93	3.6560	3.6561	3.3976	24.99	-0.08	0.050			
0.6201	39686.96	3.6550	3.6549	3.4280	25.01	-0.06	0.050			
0.6236	39907.25	3.6540	3.6539	3.4581	25.02	-0.05	0.050			
0.6270	40129.20	3.6530	3.6529	3.4881	25.01	-0.06	0.050			
0.6305	40353.10	3.6520	3.6521	3.5207	25.00	-0.07	0.050			
0.6341	40581.51	3.6510	3.6511	3.5545	24.97	-0.10	0.050			
0.6377	40812.44	3.6500	3.6500	3.5792	24.95	-0.12	0.050			
0.6414	41046.75	3.6490	3.6489	3.5938	24.91	-0.16	0.050	0.457	0.531	
0.6450	41280.74	3.6480	3.6480	3.6078	24.91	-0.16	0.050			
0.6486	41512.50	3.6470	3.6470	3.6231	24.92	-0.15	0.050			
0.6522	41742.32	3.6460	3.6460	3.6221	24.97	-0.10	0.050			
0.6558	41971.57	3.6450	3.6450	3.6209	24.97	-0.10	0.050			
0.6594	42203.09	3.6440	3.6440	3.6458	25.00	-0.07	0.050			
0.6631	42437.22	3.6430	3.6430	3.6685	25.00	-0.07	0.050	0.392	0.448	
0.6668	42672.51	3.6420	3.6419	3.6840	25.02	-0.05	0.050			
0.6705	42909.61	3.6410	3.6410	3.6932	25.02	-0.05	0.050			
0.6742	43146.76	3.6400	3.6399	3.6936	25.00	-0.07	0.050			
0.6779	43383.84	3.6390	3.6390	3.6962	24.97	-0.10	0.050			
0.6816	43622.68	3.6380	3.6377	3.6975	24.99	-0.08	0.050	0.181	0.532	
0.6854	43863.11	3.6370	3.6371	3.7010	25.01	-0.06	0.050			
0.6891	44104.29	3.6360	3.6360	3.7014	25.05	-0.02	0.050			
0.6928	44342.19	3.6350	3.6351	3.6811	25.06	-0.01	0.050			
0.6965	44577.69	3.6340	3.6339	3.6557	25.05	-0.02	0.050			
0.7002	44812.22	3.6330	3.6330	3.6325	25.05	-0.02	0.050			
0.7038	45044.90	3.6320	3.6320	3.5970	25.03	-0.04	0.050	0.427	0.584	
0.7074	45276.55	3.6310	3.6310	3.5586	24.99	-0.08	0.050			
0.7110	45503.42	3.6300	3.6300	3.5012	24.94	-0.13	0.050			
0.7146	45732.58	3.6290	3.6289	3.4513	24.95	-0.12	0.050			
0.7180	45954.70	3.6280	3.6280	3.3884	24.97	-0.10	0.050			
0.7215	46174.19	3.6270	3.6269	3.3262	24.99	-0.08	0.050	0.367	0.587	
0.7248	46385.97	3.6260	3.6259	3.2497	24.97	-0.10	0.050			
0.7280	46589.47	3.6250	3.6250	3.1756	24.94	-0.13	0.050			
0.7310	46786.71	3.6240	3.6240	3.1101	24.91	-0.16	0.050			
0.7340	46978.09	3.6230	3.6232	3.0445	24.89	-0.18	0.050			
0.7370	47165.10	3.6220	3.6222	2.9933	24.87	-0.20	0.050			
0.7399	47350.72	3.6210	3.6210	2.9408	24.85	-0.22	0.050			
0.7428	47536.43	3.6200	3.6199	2.8862	24.83	-0.24	0.050	0.457	0.469	
0.7456	47719.90	3.6190	3.6190	2.8324	24.81	-0.26	0.050			
0.7485	47904.96	3.6180	3.6177	2.7664	24.83	-0.24	0.050			
0.7514	48092.48	3.6170	3.6168	2.6843	24.87	-0.20	0.050			
0.7541	48259.87	3.6160	3.6159	2.6259	24.89	-0.18	0.050			
0.7567	48431.18	3.6150	3.6149	2.5442	24.92	-0.15	0.050			
0.7594	48599.04	3.6140	3.6140	2.4548	24.93	-0.14	0.050			
0.7619	48761.73	3.6130	3.6132	2.3588	24.94	-0.13	0.050	0.254	0.557	
0.7644	48918.41	3.6120	3.6122	2.2635	24.93	-0.14	0.050			
0.7667	49066.89	3.6110	3.6111	2.1534	24.92	-0.15	0.050			
0.7689	49208.08	3.6100	3.6101	2.0404	24.91	-0.16	0.050			
0.7710	49341.50	3.6090	3.6092	1.9295	24.89	-0.18	0.050			
0.7728	49462.07	3.6080	3.6079	1.8168	24.89	-0.18	0.050			
0.7745	49569.39	3.6070	3.6070	1.7054	24.89	-0.18	0.050			
0.7760	49664.32	3.6060	3.6058	1.5986	24.89	-0.18	0.050			
0.7773	49750.07	3.6050	3.6050	1.5024	24.89	-0.18	0.050			
0.7786	49832.24	3.6040	3.6036	1.4095	24.89	-0.18	0.050			
0.7797	49903.60	3.6030	3.6028	1.3338	24.89	-0.18	0.050			
0.7809	49978.90	3.6020	3.6018	1.2824	24.91	-0.16	0.050			
0.7820	50049.88	3.6010	3.6009	1.2273	24.92	-0.15	0.050	-0.082	0.543	
0.7831	50118.90	3.6000	3.5998	1.1916	24.93	-0.14	0.050			
0.7841	50185.02	3.5990	3.5989	1.1689	24.95	-0.12	0.050			
0.7853	50256.32	3.5980	3.5979	1.1543	24.96	-0.11	0.050			
0.7863	50324.75	3.5970	3.5971	1.1505	24.97	-0.10	0.050			
0.7874	50393.94	3.5960	3.5959	1.1476	24.99	-0.08	0.050			
0.7885	50464.63	3.5950	3.5950	1.1498	25.00	-0.07	0.050			
0.7896	50536.23	3.5940	3.5942	1.1578	25.01	-0.06	0.050			
0.7907	50607.67	3.5930	3.5931	1.1712	25.01	-0.06	0.050			
0.7919	50680.26	3.5920	3.5919	1.1929	25.01	-0.06	0.050			
0.7930	50754.56	3.5910	3.5908	1.2115	25.01	-0.06	0.050			
0.7942	50830.60	3.5900	3.5899	1.2351	25.00	-0.07	0.050			
0.7954	50908.56	3.5890	3.5890	1.2587	25.00	-0.07	0.050			
0.7967	50989.42	3.5880	3.5877	1.2801	25.00	-0.07	0.050			
0.7980	51073.20	3.5870	3.5870	1.3019	25.00	-0.07	0.050			
0.7994	51158.91	3.5860	3.5859	1.3219	24.97	-0.10	0.050			
0.8007	51247.82	3.5850	3.5850	1.3353	24.97	-0.10	0.050			
0.8021	51336.94	3.5840	3.5839	1.3470	24.97	-0.10	0.050			
0.8036	51428.86	3.5830	3.5829	1.3571	24.95	-0.12	0.050			
0.8050	51521.96	3.5820	3.5820	1.3592	24.94	-0.13	0.050			
0.8064	51611.40	3.5810	3.5810	1.3538	24.93	-0.14	0.050			
0.8078	51702.28	3.5800	3.5801	1.3408	24.91	-0.16	0.050			
0.8093	51793.61	3.5790	3.5792	1.3302	24.89	-0.18	0.050			
0.8106	51880.72	3.5780	3.5781	1.3086	24.88	-0.19	0.050			
0.8120	51967.60	3.5770	3.5771	1.2896	24.87	-0.20	0.050			
0.8133	52051.75	3.5760	3.5761	1.2651	24.87	-0.20	0.050			
0.8146	52132.92	3.5750	3.5749	1.2366	24.87	-0.20	0.050			
0.8158	52209.68	3.5740	3.5741	1.2074	24.87	-0.20	0.050			
0.8169	52283.43	3.5730	3.5731	1.1795	24.89	-0.18	0.050			
0.8181	52356.06	3.5720	3.5719	1.1512	24.89	-0.18	0.050			
0.8192	52425.91	3.5710	3.5710	1.1297	24.90	-0.17	0.050			
0.8202	52493.07	3.5700	3.5701	1.1073	24.92	-0.15	0.050			
0.8213	52560.33	3.5690	3.5690	1.0932	24.93	-0.14	0.050			
0.8223	52628.09	3.5680	3.5680	1.0805	24.93	-0.14	0.050			
0.8234	52694.46	3.5670	3.5670	1.0703	24.95	-0.12	0.050			
0.8244	52759.84	3.5660	3.5660	1.0658	24.96	-0.11	0.050			
0.8254	52825.66	3.5650	3.5651	1.0651	24.97	-0.10	0.050			
0.8264	52891.83	3.5640	3.5640	1.0624	24.97	-0.10	0.050			
0.8275	52958.82	3.5630	3.5630	1.0644	24.97	-0.10	0.050			
0.8285	53026.45	3.5620	3.5619	1.0690	24.97	-0.10	0.050			
0.8296	53094.83	3.5610	3.5610	1.0731	24.96	-0.11	0.050			
0.8307	53163.38	3.5600	3.5601	1.0781	24.95	-0.12	0.050			
0.8318	53232.38	3.5590	3.5591	1.0833	24.95	-0.12	0.050			
0.8328	53302.18	3.5580	3.5579	1.0883	24.95	-0.12	0.050			
0.8339	53372.40	3.5570	3.5569	1.0918	24.93	-0.14	0.050			
0.8351	53443.47	3.5560	3.5559	1.0969	24.93	-0.14	0.050			
0.8362	53513.89	3.5550	3.5551	1.1001	24.93	-0.14	0.050			
0.8373	53585.67	3.5540	3.5540	1.1016	24.93	-0.14	0.050			
0.8384	53657.94	3.5530	3.5530	1.1010	24.91	-0.16	0.050			
0.8395	53729.12	3.5520	3.5520	1.1000	24.91	-0.16	0.050			
0.8406	53800.84	3.5510	3.5510	1.0965	24.91	-0.16	0.050			
0.8418	53872.32	3.5500	3.5500	1.0937	24.91	-0.16	0.050	0.452	0.626	
0.8429	53943.17	3.5490	3.5490	1.0876	24.91	-0.16	0.050			
0.8440	54013.47	3.5480	3.5480	1.0820	24.91	-0.16	0.050			
0.8450	54082.13	3.5470	3.5471	1.0775	24.89	-0.18	0.050			
0.8461	54149.99	3.5460	3.5461	1.0701	24.89	-0.18	0.050			
0.8472	54218.33	3.5450	3.5451	1.0646	24.89	-0.18	0.050			
0.8482	54286.59	3.5440	3.5441	1.0588	24.89	-0.18	0.050			
0.8493	54353.54	3.5430	3.5430	1.0542	24.89	-0.18	0.050			
0.8503	54419.71	3.5420	3.5420	1.0496	24.90	-0.17	0.050			
0.8513	54485.34	3.5410	3.5410	1.0477	24.91	-0.16	0.050			
0.8524	54551.20	3.5400	3.5400	1.0440	24.91	-0.16	0.050			
0.8534	54617.07	3.5390	3.5390	1.0438	24.92	-0.15	0.050			
0.8544	54682.70	3.5380	3.5379	1.0440	24.93	-0.14	0.050			
0.8554	54748.45	3.5370	3.5370	1.0453	24.92	-0.15	0.050			
0.8565	54814.68	3.5360	3.5361	1.0471	24.93	-0.14	0.050			
0.8575	54881.60	3.5350	3.5350	1.0502	24.93	-0.14	0.050			
0.8586	54948.96	3.5340	3.5338	1.0554	24.95	-0.12	0.050			
0.8596	55016.64	3.5330	3.5331	1.0607	24.95	-0.12	0.050			
0.8607	55083.98	3.5320	3.5320	1.0675	24.96	-0.11	0.050			
0.8618	55152.34	3.5310	3.5311	1.0735	24.95	-0.12	0.050	0.235	0.601	
0.8628	55220.84	3.5300	3.5299	1.0805	24.95	-0.12	0.050			
0.8639	55289.73	3.5290	3.5290	1.0879	24.95	-0.12	0.050			
0.8650	55358.28	3.5280	3.5280	1.0967	24.95	-0.12	0.050			
0.8661	55427.43	3.5270	3.5270	1.1065	24.95	-0.12	0.050			
0.8672	55497.73	3.5260	3.5260	1.1201	24.95	-0.12	0.050			
0.8683	55569.70	3.5250	3.5249	1.1338	24.94	-0.13	0.050			
0.8694	55641.97	3.5240	3.5241	1.1474	24.93	-0.14	0.050			
0.8705	55713.93	3.5230	3.5231	1.1635	24.93	-0.14	0.050			
0.8717	55787.29	3.5220	3.5220	1.1806	24.92	-0.15	0.050			
0.8728	55861.98	3.5210	3.5210	1.1987	24.91	-0.16	0.050			
0.8740	55938.20	3.5200	3.5200	1.2225	24.91	-0.16	0.050			
0.8752	56015.99	3.5190	3.5189	1.2448	24.90	-0.17	0.050			
0.8765	56094.50	3.5180	3.5180	1.2711	24.89	-0.18	0.050			
0.8777	56174.74	3.5170	3.5169	1.2997	24.89	-0.18	0.050			
0.8790	56257.83	3.5160	3.5160	1.3313	24.88	-0.19	0.050			
0.8803	56341.97	3.5150	3.5149	1.3652	24.87	-0.20	0.050			
0.8817	56428.28	3.5140	3.5139	1.4006	24.85	-0.22	0.050	0.342	0.575	
0.8831	56516.97	3.5130	3.5131	1.4390	24.85	-0.22	0.050			
0.8845	56609.01	3.5120	3.5120	1.4773	24.85	-0.22	0.050			
0.8860	56704.59	3.5110	3.5110	1.5191	24.85	-0.22	0.050			
0.8875	56801.64	3.5100	3.5099	1.5631	24.87	-0.20	0.050			
0.8891	56901.33	3.5090	3.5089	1.6095	24.88	-0.19	0.050			
0.8907	57004.03	3.5080	3.5080	1.6580	24.90	-0.17	0.050			
0.8923	57109.32	3.5070	3.5071	1.7126	24.93	-0.14	0.050			
0.8940	57218.27	3.5060	3.5061	1.7704	24.96	-0.11	0.050			
0.8958	57333.41	3.5050	3.5050	1.8252	24.98	-0.09	0.050			
0.8977	57451.92	3.5040	3.5040	1.8797	25.00	-0.07	0.050			
0.8996	57573.22	3.5030	3.5030	1.9351	25.01	-0.06	0.050			
0.9015	57698.91	3.5020	3.5020	1.9938	25.01	-0.06	0.050	0.322	0.536	
0.9036	57830.49	3.5010	3.5007	2.0464	25.01	-0.06	0.050			
0.9057	57964.57	3.5000	3.5000	2.0994	25.02	-0.05	0.050			
0.9079	58103.44	3.4990	3.4988	2.1465	25.03	-0.04	0.050			
0.9101	58244.61	3.4980	3.4980	2.1941	25.03	-0.04	0.050			
0.9123	58387.48	3.4970	3.4971	2.2431	25.03	-0.04	0.050			
0.9146	58533.45	3.4960	3.4961	2.2899	25.01	-0.06	0.050			
0.9169	58684.18	3.4950	3.4951	2.3312	25.01	-0.06	0.050			
0.9194	58838.89	3.4940	3.4940	2.3661	25.01	-0.06	0.050			
0.9218	58997.06	3.4930	3.4931	2.3919	25.01	-0.06	0.050	0.334	0.622	
0.9243	59156.46	3.4920	3.4920	2.4076	25.02	-0.05	0.050			
0.9268	59318.29	3.4910	3.4910	2.4089	25.04	-0.03	0.050			
0.9294	59479.46	3.4900	3.4899	2.3996	25.05	-0.02	0.050			
0.9319	59641.54	3.4890	3.4889	2.3706	25.02	-0.05	0.050			
0.9344	59803.29	3.4880	3.4880	2.3220	25.00	-0.07	0.050			
0.9369	59959.37	3.4870	3.4871	2.2690	24.98	-0.09	0.050			
0.9393	60116.97	3.4860	3.4861	2.1837	24.97	-0.10	0.050			
0.9416	60264.36	3.4850	3.4851	2.0926	24.97	-0.10	0.050	0.224	0.681	
0.9438	60404.75	3.4840	3.4840	1.9863	24.95	-0.12	0.050			
0.9459	60537.13	3.4830	3.4833	1.8711	24.95	-0.12	0.050			
0.9479	60664.11	3.4820	3.4822	1.7546	24.95	-0.12	0.050			
0.9497	60778.43	3.4810	3.4813	1.6297	24.95	-0.12	0.050			
0.9513	60882.72	3.4800	3.4802	1.4849	24.93	-0.14	0.050			
0.9527	60973.65	3.4790	3.4790	1.3560	24.92	-0.15	0.050			
0.9539	61050.71	3.4780	3.4779	1.2337	24.91	-0.16	0.050			
0.9549	61114.38	3.4770	3.4768	1.1190	24.90	-0.17	0.050			
0.9559	61176.55	3.4760	3.4756	0.9904	24.89	-0.18	0.050			
0.9566	61222.70	3.4750	3.4744	0.8974	24.89	-0.18	0.050			
0.9573	61268.45	3.4740	3.4732	0.7911	24.89	-0.18	0.050			
0.9578	61299.24	3.4730	3.4725	0.7165	24.89	-0.18	0.050			
0.9583	61328.85	3.4720	3.4717	0.6578	24.89	-0.18	0.050			
0.9588	61360.03	3.4710	3.4706	0.5925	24.88	-0.19	0.050			
0.9592	61388.25	3.4700	3.4696	0.5547	24.88	-0.19	0.050			
0.9597	61417.68	3.4690	3.4688	0.5134	24.88	-0.19	0.050			
0.9601	61443.56	3.4680	3.4680	0.4856	24.88	-0.19	0.050			
0.9605	61470.56	3.4670	3.4669	0.4654	24.88	-0.19	0.050			
0.9609	61496.57	3.4660	3.4658	0.4402	24.89	-0.18	0.050			
0.9613	61522.34	3.4650	3.4651	0.4256	24.89	-0.18	0.050			
0.9617	61548.15	3.4640	3.4640	0.4100	24.88	-0.19	0.050			
0.9621	61572.34	3.4630	3.4631	0.3987	24.88	-0.19	0.050	0.374	0.596	
0.9624	61596.59	3.4620	3.4620	0.3862	24.88	-0.19	0.050			
0.9628	61620.05	3.4610	3.4609	0.3768	24.89	-0.18	0.050			
0.9632	61643.89	3.4600	3.4601	0.3684	24.89	-0.18	0.050			
0.9635	61666.09	3.4590	3.4590	0.3611	24.89	-0.18	0.050			
0.9639	61688.36	3.4580	3.4580	0.3527	24.89	-0.18	0.050			
0.9642	61710.22	3.4570	3.4569	0.3462	24.89	-0.18	0.050			
0.9646	61732.19	3.4560	3.4560	0.3403	24.89	-0.18	0.050			
0.9649	61753.10	3.4550	3.4550	0.3354	24.89	-0.18	0.050			
0.9652	61774.41	3.4540	3.4540	0.3303	24.89	-0.18	0.050			
0.9655	61794.47	3.4530	3.4529	0.3256	24.89	-0.18	0.050			
0.9659	61814.91	3.4520	3.4521	0.3208	24.89	-0.18	0.050			
0.9662	61835.32	3.4510	3.4511	0.3170	24.89	-0.18	0.050			
0.9665	61855.04	3.4500	3.4500	0.3134	24.89	-0.18	0.050			
0.9668	61874.99	3.4490	3.4489	0.3100	24.89	-0.18	0.050			
0.9671	61894.32	3.4480	3.4481	0.3068	24.89	-0.18	0.050			
0.9674	61913.79	3.4470	3.4470	0.3037	24.89	-0.18	0.050			
0.9677	61933.13	3.4460	3.4460	0.3009	24.89	-0.18	0.050			
0.9680	61951.97	3.4450	3.4448	0.2973	24.89	-0.18	0.050			
0.9683	61970.83	3.4440	3.4440	0.2951	24.89	-0.18	0.050			
0.9686	61989.65	3.4430	3.4430	0.2927	24.89	-0.18	0.050			
0.9689	62008.31	3.4420	3.4420	0.2903	24.89	-0.18	0.050			
0.9692	62026.42	3.4410	3.4411	0.2882	24.89	-0.18	0.050			
0.9695	62044.80	3.4400	3.4401	0.2863	24.89	-0.18	0.050			
0.9697	62063.37	3.4390	3.4390	0.2841	24.89	-0.18	0.050			
0.9700	62081.48	3.4380	3.4380	0.2818	24.89	-0.18	0.050			
0.9703	62099.17	3.4370	3.4371	0.2796	24.89	-0.18	0.050			
0.9706	62117.00	3.4360	3.4360	0.2777	24.89	-0.18	0.050			
0.9709	62134.89	3.4350	3.4350	0.2760	24.88	-0.19	0.050			
0.9711	62152.47	3.4340	3.4339	0.2739	24.87	-0.20	0.050			
0.9714	62169.67	3.4330	3.4331	0.2712	24.87	-0.20	0.050			
0.9717	62186.83	3.4320	3.4319	0.2697	24.87	-0.20	0.050			
0.9719	62204.03	3.4310	3.4311	0.2680	24.87	-0.20	0.050			
0.9722	62221.02	3.4300	3.4301	0.2661	24.87	-0.20	0.050			
0.9725	62238.10	3.4290	3.4290	0.2641	24.87	-0.20	0.050			
0.9727	62255.02	3.4280	3.4280	0.2625	24.87	-0.20	0.050			
0.9730	62271.59	3.4270	3.4268	0.2612	24.87	-0.20	0.050			
0.9733	62288.22	3.4260	3.4261	0.2595	24.87	-0.20	0.050			
0.9735	62304.78	3.4250	3.4249	0.2579	24.87	-0.20	0.050			
0.9738	62321.05	3.4240	3.4241	0.2569	24.87	-0.20	0.050			
0.9740	62337.45	3.4230	3.4230	0.2555	24.87	-0.20	0.050			
0.9743	62353.89	3.4220	3.4219	0.2537	24.86	-0.21	0.050			
0.9745	62369.89	3.4210	3.4211	0.2519	24.86	-0.21	0.050			
0.9748	62385.97	3.4200	3.4200	0.2505	24.86	-0.21	0.050			
0.9750	62401.92	3.4190	3.4191	0.2488	24.87	-0.20	0.050			
0.9753	62417.80	3.4180	3.4180	0.2475	24.87	-0.20	0.050			
0.9755	62433.88	3.4170	3.4169	0.2466	24.87	-0.20	0.050			
0.9758	62449.50	3.4160	3.4159	0.2454	24.87	-0.20	0.050			
0.9760	62465.16	3.4150	3.4150	0.2440	24.87	-0.20	0.050			
0.9763	62480.56	3.4140	3.4142	0.2423	24.87	-0.20	0.050			
0.9765	62496.03	3.4130	3.4131	0.2411	24.87	-0.20	0.050			
0.9767	62511.53	3.4120	3.4120	0.2400	24.87	-0.20	0.050			
0.9770	62526.88	3.4110	3.4111	0.2385	24.87	-0.20	0.050			
0.9772	62542.09	3.4100	3.4099	0.2370	24.87	-0.20	0.050			
0.9775	62557.14	3.4090	3.4089	0.2355	24.87	-0.20	0.050			
0.9777	62572.03	3.4080	3.4080	0.2346	24.87	-0.20	0.050			
0.9779	62587.10	3.4070	3.4069	0.2336	24.87	-0.20	0.050			
0.9782	62602.01	3.4060	3.4060	0.2323	24.87	-0.20	0.050			
0.9784	62616.83	3.4050	3.4049	0.2310	24.86	-0.21	0.050			
0.9786	62631.30	3.4040	3.4040	0.2293	24.86	-0.21	0.050			
0.9788	62645.98	3.4030	3.4031	0.2281	24.86	-0.21	0.050			
0.9791	62660.49	3.4020	3.4020	0.2268	24.86	-0.21	0.050			
0.9793	62674.97	3.4010	3.4010	0.2258	24.86	-0.21	0.050			
0.9795	62689.45	3.4000	3.4000	0.2245	24.86	-0.21	0.050			
0.9798	62704.02	3.3990	3.3989	0.2239	24.86	-0.21	0.050			
0.9800	62718.31	3.3980	3.3980	0.2226	24.86	-0.21	0.050			
0.9802	62732.24	3.3970	3.3971	0.2222	24.85	-0.22	0.050			
0.9804	62746.30	3.3960	3.3960	0.2210	24.85	-0.22	0.050			
0.9806	62760.41	3.3950	3.3951	0.2200	24.85	-0.22	0.050			
0.9808	62774.20	3.3940	3.3941	0.2190	24.85	-0.22	0.050			
0.9811	62788.20	3.3930	3.3930	0.2184	24.85	-0.22	0.050			
0.9813	62802.15	3.3920	3.3920	0.2177	24.85	-0.22	0.050			
0.9815	62815.91	3.3910	3.3910	0.2171	24.85	-0.22	0.050			
0.9817	62829.79	3.3900	3.3899	0.2166	24.85	-0.22	0.050			
0.9819	62843.64	3.3890	3.3890	0.2161	24.85	-0.22	0.050			
0.9821	62857.58	3.3880	3.3880	0.2150	24.85	-0.22	0.050	0.389	0.554	
0.9824	62871.32	3.3870	3.3870	0.2144	24.84	-0.23	0.050			
0.9826	62885.02	3.3860	3.3861	0.2137	24.84	-0.23	0.050			
0.9828	62898.76	3.3850	3.3851	0.2123	24.83	-0.24	0.050			
0.9830	62912.32	3.3840	3.3840	0.2116	24.83	-0.24	0.050			
0.9832	62926.10	3.3830	3.3830	0.2114	24.83	-0.24	0.050			
0.9834	62939.66	3.3820	3.3820	0.2102	24.83	-0.24	0.050			
0.9836	62953.08	3.3810	3.3810	0.2092	24.83	-0.24	0.050			
0.9839	62966.67	3.3800	3.3800	0.2086	24.83	-0.24	0.050			
0.9841	62980.00	3.3790	3.3791	0.2074	24.83	-0.24	0.050			
0.9843	62993.23	3.3780	3.3781	0.2061	24.83	-0.24	0.050			
0.9845	63006.56	3.3770	3.3770	0.2052	24.83	-0.24	0.050			
0.9847	63019.65	3.3760	3.3759	0.2038	24.83	-0.24	0.050			
0.9849	63032.50	3.3750	3.3750	0.2029	24.82	-0.25	0.050			
0.9851	63045.26	3.3740	3.3741	0.2012	24.82	-0.25	0.050			
0.9853	63058.10	3.3730	3.3730	0.2001	24.81	-0.26	0.050			
0.9855	63070.67	3.3720	3.3720	0.1998	24.81	-0.26	0.050			
0.9857	63083.29	3.3710	3.3710	0.1986	24.81	-0.26	0.050			
0.9859	63095.98	3.3700	3.3700	0.1978	24.81	-0.26	0.050			
0.9861	63108.61	3.3690	3.3690	0.1970	24.81	-0.26	0.050			
0.9863	63120.99	3.3680	3.3681	0.1958	24.81	-0.26	0.050			
0.9865	63133.50	3.3670	3.3669	0.1952	24.81	-0.26	0.050			
0.9867	63146.16	3.3660	3.3659	0.1940	24.81	-0.26	0.050			
0.9869	63158.63	3.3650	3.3651	0.1935	24.81	-0.26	0.050			
0.9870	63170.98	3.3640	3.3640	0.1926	24.81	-0.26	0.050			
0.9872	63183.29	3.3630	3.3629	0.1918	24.81	-0.26	0.050			
0.9874	63195.54	3.3620	3.3620	0.1911	24.81	-0.26	0.050			
0.9876	63207.75	3.3610	3.3611	0.1903	24.81	-0.26	0.050			
0.9878	63219.90	3.3600	3.3601	0.1895	24.81	-0.26	0.050			
0.9880	63232.13	3.3590	3.3591	0.1886	24.81	-0.26	0.050			
0.9882	63244.17	3.3580	3.3580	0.1876	24.81	-0.26	0.050			
0.9884	63256.14	3.3570	3.3570	0.1866	24.81	-0.26	0.050			
0.9886	63268.06	3.3560	3.3560	0.1857	24.81	-0.26	0.050			
0.9887	63279.96	3.3550	3.3551	0.1852	24.81	-0.26	0.050			
0.9889	63291.78	3.3540	3.3540	0.1842	24.81	-0.26	0.050			
0.9891	63303.54	3.3530	3.3529	0.1833	24.81	-0.26	0.050			
0.9893	63315.12	3.3520	3.3520	0.1823	24.81	-0.26	0.050			
0.9895	63326.75	3.3510	3.3510	0.1814	24.81	-0.26	0.050			
0.9897	63338.33	3.3500	3.3500	0.1805	24.81	-0.26	0.050			
0.9898	63349.65	3.3490	3.3491	0.1793	24.81	-0.26	0.050			
0.9900	63361.04	3.3480	3.3481	0.1788	24.81	-0.26	0.050			
0.9902	63372.46	3.3470	3.3470	0.1781	24.81	-0.26	0.050			
0.9904	63383.84	3.3460	3.3460	0.1775	24.81	-0.26	0.050			
0.9905	63395.18	3.3450	3.3450	0.1769	24.81	-0.26	0.050			
0.9907	63406.55	3.3440	3.3440	0.1760	24.81	-0.26	0.050			
0.9909	63417.79	3.3430	3.3430	0.1753	24.82	-0.25	0.050			
0.9911	63429.06	3.3420	3.3419	0.1747	24.82	-0.25	0.050			
0.9913	63440.10	3.3410	3.3411	0.1742	24.82	-0.25	0.050			
0.9914	63451.23	3.3400	3.3401	0.1735	24.82	-0.25	0.050			
0.9916	63462.18	3.3390	3.3389	0.1726	24.82	-0.25	0.050			
0.9918	63473.21	3.3380	3.3379	0.1720	24.83	-0.24	0.050			
0.9919	63484.23	3.3370	3.3371	0.1714	24.83	-0.24	0.050			
0.9921	63495.18	3.3360	3.3361	0.1708	24.83	-0.24	0.050			
0.9923	63506.17	3.3350	3.3349	0.1704	24.83	-0.24	0.050			
0.9925	63517.05	3.3340	3.3340	0.1697	24.83	-0.24	0.050			
0.9926	63528.07	3.3330	3.3329	0.1686	24.84	-0.23	0.050			
0.9928	63538.85	3.3320	3.3319	0.1678	24.84	-0.23	0.050			
0.9930	63549.57	3.3310	3.3310	0.1670	24.84	-0.23	0.050			
0.9931	63560.23	3.3300	3.3300	0.1662	24.84	-0.23	0.050			
0.9933	63570.79	3.3290	3.3290	0.1655	24.84	-0.23	0.050			
0.9935	63581.45	3.3280	3.3280	0.1649	24.85	-0.22	0.050			
0.9936	63591.98	3.3270	3.3270	0.1641	24.85	-0.22	0.050			
0.9938	63602.45	3.3260	3.3261	0.1632	24.85	-0.22	0.050			
0.9939	63612.74	3.3250	3.3251	0.1629	24.85	-0.22	0.050			
0.9941	63623.06	3.3240	3.3241	0.1620	24.85	-0.22	0.050			
0.9943	63633.41	3.3230	3.3231	0.1614	24.86	-0.21	0.050			
0.9944	63643.71	3.3220	3.3220	0.1607	24.86	-0.21	0.050			
0.9946	63654.11	3.3210	3.3209	0.1599	24.86	-0.21	0.050			
0.9948	63664.32	3.3200	3.3199	0.1592	24.86	-0.21	0.050			
0.9949	63674.48	3.3190	3.3189	0.1584	24.86	-0.21	0.050			
0.9951	63684.59	3.3180	3.3180	0.1576	24.87	-0.20	0.050			
0.9952	63694.33	3.3170	3.3170	0.1569	24.87	-0.20	0.050			
0.9954	63704.35	3.3160	3.3160	0.1565	24.87	-0.20	0.050			
0.9955	63714.35	3.3150	3.3150	0.1560	24.87	-0.20	0.050			
0.9957	63724.32	3.3140	3.3141	0.1555	24.88	-0.19	0.050			
0.9958	63734.19	3.3130	3.3131	0.1549	24.88	-0.19	0.050			
0.9960	63744.09	3.3120	3.3121	0.1545	24.88	-0.19	0.050			
0.9962	63753.97	3.3110	3.3111	0.1541	24.89	-0.18	0.050			
0.9963	63763.81	3.3100	3.3101	0.1536	24.89	-0.18	0.050			
0.9965	63773.81	3.3090	3.3089	0.1533	24.89	-0.18	0.050			
0.9966	63783.61	3.3080	3.3078	0.1528	24.89	-0.18	0.050			
0.9968	63793.37	3.3070	3.3069	0.1522	24.90	-0.17	0.050			
0.9969	63803.09	3.3060	3.3061	0.1516	24.90	-0.17	0.050			
0.9971	63812.73	3.3050	3.3051	0.1509	24.90	-0.17	0.050			
0.9972	63822.37	3.3040	3.3040	0.1503	24.90	-0.17	0.050			
0.9974	63831.97	3.3030	3.3030	0.1498	24.90	-0.17	0.050			
0.9975	63841.54	3.3020	3.3020	0.1493	24.90	-0.17	0.050			
0.9977	63851.03	3.3010	3.3010	0.1487	24.90	-0.17	0.050			
0.9978	63860.51	3.3000	3.3001	0.1482	24.90	-0.17	0.050			
0.9980	63869.98	3.2990	3.2991	0.1477	24.90	-0.17	0.050			
0.9981	63879.42	3.2980	3.2980	0.1473	24.90	-0.17	0.050			
0.9983	63889.06	3.2970	3.2969	0.1471	24.90	-0.17	0.050			
0.9984	63898.41	3.2960	3.2959	0.1465	24.91	-0.16	0.050			
0.9986	63907.76	3.2950	3.2950	0.1459	24.91	-0.16	0.050			
0.9987	63917.08	3.2940	3.2940	0.1453	24.91	-0.16	0.050			
0.9988	63926.19	3.2930	3.2930	0.1444	24.91	-0.16	0.050			
0.9990	63935.42	3.2920	3.2920	0.1439	24.91	-0.16	0.050			
0.9991	63944.59	3.2910	3.2909	0.1435	24.91	-0.16	0.050			
0.9993	63953.75	3.2900	3.2900	0.1430	24.91	-0.16	0.050			
0.9994	63962.87	3.2890	3.2891	0.1425	24.91	-0.16	0.050			
0.9996	63971.97	3.2880	3.2881	0.1420	24.91	-0.16	0.050			
0.9997	63981.07	3.2870	3.2870	0.1415	24.91	-0.16	0.050			
0.9998	63990.11	3.2860	3.2860	0.1410	24.91	-0.16	0.050			
1.0000	63999.15	3.2850	3.2850	0.1406	24.91	-0.16	0.050			
1.0001	64008.14	3.2840	3.2840	0.1401	24.92	-0.15	0.050			
1.0003	64017.09	3.2830	3.2830	0.1396	24.92	-0.15	0.050			
1.0004	64026.01	3.2820	3.2820	0.1391	24.92	-0.15	0.050			
1.0005	64034.90	3.2810	3.2810	0.1386	24.92	-0.15	0.050			
1.0007	64043.78	3.2800	3.2800	0.1381	24.92	-0.15	0.050			
1.0008	64052.60	3.2790	3.2789	0.1376	24.92	-0.15	0.050			
1.0010	64061.45	3.2780	3.2780	0.1370	24.93	-0.14	0.050			
1.0011	64070.19	3.2770	3.2771	0.1364	24.93	-0.14	0.050			
1.0012	64078.90	3.2760	3.2760	0.1358	24.93	-0.14	0.050			
1.0014	64087.57	3.2750	3.2750	0.1353	24.93	-0.14	0.050			
1.0015	64096.21	3.2740	3.2740	0.1347	24.93	-0.14	0.050			
1.0016	64104.89	3.2730	3.2729	0.1339	24.93	-0.14	0.050			
1.0018	64113.44	3.2720	3.2720	0.1333	24.93	-0.14	0.050			
1.0019	64122.06	3.2710	3.2710	0.1329	24.93	-0.14	0.050			
1.0020	64130.55	3.2700	3.2700	0.1322	24.93	-0.14	0.050			
1.0022	64138.99	3.2690	3.2690	0.1316	24.93	-0.14	0.050			
1.0023	64147.32	3.2680	3.2679	0.1311	24.93	-0.14	0.050	0.440	0.796	
1.0024	64155.66	3.2670	3.2670	0.1304	24.94	-0.13	0.050			
1.0026	64163.99	3.2660	3.2660	0.1298	24.94	-0.13	0.050			
1.0027	64172.27	3.2650	3.2649	0.1292	24.94	-0.13	0.050			
1.0028	64180.52	3.2640	3.2640	0.1285	24.95	-0.12	0.050			
1.0029	64188.69	3.2630	3.2630	0.1281	24.95	-0.12	0.050			
1.0031	64196.83	3.2620	3.2621	0.1274	24.95	-0.12	0.050			
1.0032	64204.96	3.2610	3.2611	0.1268	24.95	-0.12	0.050			
1.0033	64213.06	3.2600	3.2600	0.1263	24.95	-0.12	0.050			
1.0035	64221.13	3.2590	3.2589	0.1257	24.96	-0.11	0.050			
1.0036	64228.97	3.2580	3.2580	0.1251	24.96	-0.11	0.050			
1.0037	64236.97	3.2570	3.2570	0.1247	24.96	-0.11	0.050			
1.0038	64244.94	3.2560	3.2560	0.1243	24.96	-0.11	0.050			
1.0040	64252.88	3.2550	3.2550	0.1239	24.96	-0.11	0.050			
1.0041	64260.80	3.2540	3.2540	0.1235	24.96	-0.11	0.050			
1.0042	64268.60	3.2530	3.2530	0.1230	24.97	-0.10	0.050			
1.0043	64276.46	3.2520	3.2520	0.1226	24.97	-0.10	0.050			
1.0044	64284.30	3.2510	3.2510	0.1222	24.97	-0.10	0.050			
1.0046	64292.11	3.2500	3.2500	0.1219	24.97	-0.10	0.050			
1.0047	64299.90	3.2490	3.2490	0.1215	24.97	-0.10	0.050			
1.0048	64307.67	3.2480	3.2480	0.1212	24.98	-0.09	0.050			
1.0049	64315.40	3.2470	3.2470	0.1208	24.98	-0.09	0.050			
1.0050	64323.12	3.2460	3.2460	0.1205	24.98	-0.09	0.050			
1.0052	64330.82	3.2450	3.2450	0.1201	24.98	-0.09	0.050			
1.0053	64338.49	3.2440	3.2440	0.1198	24.99	-0.08	0.050			
1.0054	64346.09	3.2430	3.2430	0.1193	24.99	-0.08	0.050			
1.0055	64353.85	3.2420	3.2420	0.1188	24.99	-0.08	0.050			
1.0056	64361.44	3.2410	3.2411	0.1184	24.99	-0.08	0.050			
1.0058	64369.00	3.2400	3.2401	0.1180	24.99	-0.08	0.050			
1.0059	64376.54	3.2390	3.2390	0.1176	25.00	-0.07	0.050			
1.0060	64384.17	3.2380	3.2379	0.1173	25.00	-0.07	0.050			
1.0061	64391.66	3.2370	3.2370	0.1168	25.00	-0.07	0.050			
1.0062	64399.16	3.2360	3.2361	0.1163	25.00	-0.07	0.050			
1.0064	64406.58	3.2350	3.2350	0.1158	25.00	-0.07	0.050			
1.0065	64413.97	3.2340	3.2340	0.1152	25.00	-0.07	0.050			
1.0066	64421.33	3.2330	3.2331	0.1147	25.00	-0.07	0.050			
1.0067	64428.70	3.2320	3.2321	0.1142	25.01	-0.06	0.050			
1.0068	64435.99	3.2310	3.2310	0.1137	25.01	-0.06	0.050			
1.0069	64443.16	3.2300	3.2299	0.1134	25.01	-0.06	0.050			
1.0070	64450.40	3.2290	3.2290	0.1129	25.01	-0.06	0.050			
1.0072	64457.62	3.2280	3.2280	0.1124	25.01	-0.06	0.050			
1.0073	64464.76	3.2270	3.2271	0.1119	25.01	-0.06	0.050			
1.0074	64471.91	3.2260	3.2261	0.1115	25.01	-0.06	0.050			
1.0075	64479.03	3.2250	3.2249	0.1110	25.01	-0.06	0.050			
1.0076	64486.08	3.2240	3.2239	0.1107	25.01	-0.06	0.050			
1.0077	64493.15	3.2230	3.2230	0.1102	25.01	-0.06	0.050			
1.0078	64500.08	3.2220	3.2220	0.1096	25.01	-0.06	0.050			
1.0079	64507.08	3.2210	3.2208	0.1092	25.01	-0.06	0.050			
1.0080	64514.06	3.2200	3.2200	0.1089	25.01	-0.06	0.050			
1.0081	64521.10	3.2190	3.2190	0.1083	25.01	-0.06	0.050			
1.0083	64528.02	3.2180	3.2180	0.1079	25.01	-0.06	0.050			
1.0084	64534.92	3.2170	3.2170	0.1075	25.02	-0.05	0.050			
1.0085	64541.83	3.2160	3.2160	0.1072	25.02	-0.05	0.050			
1.0086	64548.67	3.2150	3.2150	0.1068	25.02	-0.05	0.050			
1.0087	64555.49	3.2140	3.2140	0.1063	25.02	-0.05	0.050			
1.0088	64562.22	3.2130	3.2131	0.1061	25.02	-0.05	0.050			
1.0089	64568.99	3.2120	3.2121	0.1057	25.02	-0.05	0.050			
1.0090	64575.74	3.2110	3.2111	0.1053	25.03	-0.04	0.050			
1.0091	64582.49	3.2100	3.2100	0.1049	25.03	-0.04	0.050			
1.0092	64589.19	3.2090	3.2090	0.1045	25.03	-0.04	0.050			
1.0093	64595.87	3.2080	3.2080	0.1041	25.03	-0.04	0.050			
1.0094	64602.52	3.2070	3.2071	0.1037	25.04	-0.03	0.050			
1.0095	64609.11	3.2060	3.2060	0.1035	25.04	-0.03	0.050			
1.0096	64615.72	3.2050	3.2048	0.1031	25.04	-0.03	0.050			
1.0097	64622.22	3.2040	3.2039	0.1026	25.04	-0.03	0.050			
1.0098	64628.77	3.2030	3.2031	0.1022	25.04	-0.03	0.050			
1.0099	64635.30	3.2020	3.2021	0.1019	25.04	-0.03	0.050			
1.0100	64641.82	3.2010	3.2011	0.1016	25.05	-0.02	0.050			
1.0101	64648.31	3.2000	3.2001	0.1013	25.05	-0.02	0.050			
1.0102	64654.81	3.1990	3.1990	0.1008	25.05	-0.02	0.050			
1.0103	64661.25	3.1980	3.1979	0.1004	25.05	-0.02	0.050			
1.0104	64667.67	3.1970	3.1968	0.1001	25.05	-0.02	0.050			
1.0105	64674.06	3.1960	3.1961	0.0997	25.05	-0.02	0.050			
1.0106	64680.44	3.1950	3.1951	0.0994	25.05	-0.02	0.050			
1.0107	64686.79	3.1940	3.1941	0.0990	25.05	-0.02	0.050			
1.0108	64693.18	3.1930	3.1931	0.0989	25.05	-0.02	0.050			
1.0109	64699.50	3.1920	3.1921	0.0985	25.05	-0.02	0.050			
1.0110	64705.79	3.1910	3.1910	0.0981	25.05	-0.02	0.050			
1.0111	64712.05	3.1900	3.1900	0.0977	25.05	-0.02	0.050			
1.0112	64718.29	3.1890	3.1889	0.0973	25.05	-0.02	0.050			
1.0113	64724.50	3.1880	3.1880	0.0969	25.05	-0.02	0.050			
1.0114	64730.68	3.1870	3.1870	0.0965	25.05	-0.02	0.050			
1.0115	64736.83	3.1860	3.1860	0.0961	25.05	-0.02	0.050			
1.0116	64742.96	3.1850	3.1850	0.0957	25.05	-0.02	0.050			
1.0117	64749.07	3.1840	3.1840	0.0953	25.06	-0.01	0.050			
1.0118	64755.16	3.1830	3.1830	0.0949	25.06	-0.01	0.050			
1.0119	64761.23	3.1820	3.1820	0.0946	25.06	-0.01	0.050			
1.0120	64767.27	3.1810	3.1810	0.0942	25.06	-0.01	0.050			
1.0121	64773.28	3.1800	3.1800	0.0939	25.06	-0.01	0.050			
1.0122	64779.25	3.1790	3.1790	0.0934	25.06	-0.01	0.050			
1.0123	64785.22	3.1780	3.1780	0.0931	25.06	-0.01	0.050			
1.0124	64791.17	3.1770	3.1770	0.0927	25.06	-0.01	0.050			
1.0125	64797.09	3.1760	3.1760	0.0924	25.06	-0.01	0.050			
1.0125	64802.99	3.1750	3.1751	0.0920	25.07	-0.00	0.050			
1.0126	64808.87	3.1740	3.1740	0.0917	25.07	-0.00	0.050			
1.0127	64814.68	3.1730	3.1730	0.0914	25.07	-0.00	0.050			
1.0128	64820.53	3.1720	3.1720	0.0911	25.07	-0.00	0.050			
1.0129	64826.34	3.1710	3.1710	0.0908	25.07	-0.00	0.050			
1.0130	64832.14	3.1700	3.1700	0.0904	25.07	0.00	0.050			
1.0131	64837.92	3.1690	3.1690	0.0901	25.07	0.00	0.050			
1.0132	64843.68	3.1680	3.1680	0.0898	25.07	0.00	0.050			
1.0133	64849.41	3.1670	3.1670	0.0893	25.07	0.00	0.050			
1.0134	64855.11	3.1660	3.1660	0.0890	25.07	0.00	0.050			
1.0134	64860.80	3.1650	3.1650	0.0886	25.07	0.00	0.050			
1.0135	64866.46	3.1640	3.1640	0.0883	25.07	0.00	0.050			
1.0136	64872.10	3.1630	3.1630	0.0880	25.07	0.00	0.050			
1.0137	64877.72	3.1620	3.1620	0.0877	25.07	0.00	0.050			
1.0138	64883.34	3.1610	3.1610	0.0873	25.07	0.00	0.050			
1.0139	64888.94	3.1600	3.1600	0.0870	25.07	0.00	0.050			
1.0140	64894.50	3.1590	3.1591	0.0867	25.07	0.00	0.050			
1.0141	64900.04	3.1580	3.1580	0.0863	25.07	0.00	0.050			
1.0141	64905.55	3.1570	3.1570	0.0860	25.07	0.00	0.050			
1.0142	64911.04	3.1560	3.1560	0.0856	25.08	0.01	0.050			
1.0143	64916.51	3.1550	3.1550	0.0852	25.08	0.01	0.050			
1.0144	64921.91	3.1540	3.1540	0.0851	25.08	0.01	0.050			
1.0145	64927.32	3.1530	3.1530	0.0847	25.08	0.01	0.050			
1.0146	64932.73	3.1520	3.1519	0.0844	25.08	0.01	0.050			
1.0147	64938.13	3.1510	3.1510	0.0841	25.08	0.01	0.050			
1.0147	64943.50	3.1500	3.1500	0.0838	25.08	0.01	0.050			
1.0148	64948.86	3.1490	3.1490	0.0835	25.08	0.01	0.050			
1.0149	64954.20	3.1480	3.1480	0.0832	25.08	0.01	0.050			
1.0150	64959.46	3.1470	3.1471	0.0828	25.08	0.01	0.050			
1.0151	64964.75	3.1460	3.1460	0.0825	25.09	0.02	0.050			
1.0152	64970.02	3.1450	3.1450	0.0822	25.09	0.02	0.050			
1.0152	64975.27	3.1440	3.1440	0.0819	25.09	0.02	0.050			
1.0153	64980.51	3.1430	3.1430	0.0817	25.09	0.02	0.050			
1.0154	64985.73	3.1420	3.1419	0.0814	25.09	0.02	0.050			
1.0155	64990.97	3.1410	3.1410	0.0812	25.09	0.02	0.050			
1.0156	64996.21	3.1400	3.1400	0.0807	25.09	0.02	0.050			
1.0156	65001.37	3.1390	3.1390	0.0804	25.08	0.01	0.050			
1.0157	65006.50	3.1380	3.1380	0.0801	25.08	0.01	0.050			
1.0158	65011.62	3.1370	3.1370	0.0797	25.08	0.01	0.050			
1.0159	65016.71	3.1360	3.1360	0.0794	25.08	0.01	0.050			
1.0160	65021.78	3.1350	3.1350	0.0790	25.08	0.01	0.050			
1.0160	65026.94	3.1340	3.1340	0.0788	25.08	0.01	0.050			
1.0161	65031.80	3.1330	3.1331	0.0786	25.07	0.00	0.050			
1.0162	65036.82	3.1320	3.1320	0.0783	25.07	0.00	0.050			
1.0163	65041.82	3.1310	3.1310	0.0780	25.07	0.00	0.050			
1.0164	65046.81	3.1300	3.1300	0.0777	25.07	0.00	0.050			
1.0164	65051.78	3.1290	3.1290	0.0774	25.07	0.00	0.050			
1.0165	65056.60	3.1280	3.1280	0.0770	25.07	0.00	0.050			
1.0166	65061.52	3.1270	3.1270	0.0767	25.07	0.00	0.050			
1.0167	65066.42	3.1260	3.1260	0.0765	25.07	0.00	0.050			
1.0167	65071.40	3.1250	3.1250	0.0761	25.07	0.00	0.050			
1.0168	65076.26	3.1240	3.1240	0.0758	25.07	0.00	0.050			
1.0169	65081.10	3.1230	3.1230	0.0756	25.07	0.00	0.050			
1.0170	65085.93	3.1220	3.1220	0.0753	25.07	0.00	0.050			
1.0170	65090.74	3.1210	3.1210	0.0750	25.07	0.00	0.050			
1.0171	65095.53	3.1200	3.1200	0.0747	25.07	0.00	0.050			
1.0172	65100.30	3.1190	3.1190	0.0744	25.07	0.00	0.050			
1.0173	65105.06	3.1180	3.1180	0.0742	25.07	0.00	0.050			
1.0173	65109.78	3.1170	3.1171	0.0739	25.07	0.00	0.050			
1.0174	65114.50	3.1160	3.1161	0.0737	25.07	0.00	0.050			
1.0175	65119.21	3.1150	3.1150	0.0734	25.07	0.00	0.050			
1.0176	65123.90	3.1140	3.1141	0.0731	25.07	0.00	0.050			
1.0176	65128.64	3.1130	3.1131	0.0730	25.07	0.00	0.050			
1.0177	65133.30	3.1120	3.1121	0.0727	25.07	0.00	0.050			
1.0178	65137.94	3.1110	3.1110	0.0724	25.07	0.00	0.050			
1.0179	65142.57	3.1100	3.1099	0.0721	25.07	0.00	0.050			
1.0179	65147.11	3.1090	3.1089	0.0719	25.07	0.00	0.050			
1.0180	65151.70	3.1080	3.1079	0.0716	25.07	0.00	0.050			
1.0181	65156.28	3.1070	3.1070	0.0714	25.07	0.00	0.050			
1.0181	65160.84	3.1060	3.1060	0.0711	25.07	0.00	0.050			
1.0182	65165.25	3.1050	3.1050	0.0706	25.07	0.00	0.050			
1.0183	65169.77	3.1040	3.1040	0.0704	25.07	0.00	0.050			
1.0183	65174.27	3.1030	3.1030	0.0702	25.07	0.00	0.050			
1.0184	65178.76	3.1020	3.1020	0.0700	25.07	0.00	0.050			
1.0185	65183.34	3.1010	3.1010	0.0696	25.07	0.00	0.050			
1.0186	65187.78	3.1000	3.1000	0.0693	25.07	0.00	0.050			
1.0186	65192.21	3.0990	3.0990	0.0690	25.07	0.00	0.050			
1.0187	65196.62	3.0980	3.0980	0.0688	25.07	0.00	0.050			
1.0188	65201.11	3.0970	3.0970	0.0687	25.07	-0.00	0.050			
1.0188	65205.50	3.0960	3.0960	0.0684	25.07	-0.00	0.050			
1.0189	65209.86	3.0950	3.0950	0.0681	25.07	-0.00	0.050			
1.0190	65214.21	3.0940	3.0940	0.0677	25.07	-0.00	0.050			
1.0190	65218.54	3.0930	3.0930	0.0674	25.07	-0.00	0.050			
1.0191	65222.82	3.0920	3.0921	0.0672	25.07	-0.00	0.050			
1.0192	65227.11	3.0910	3.0910	0.0669	25.07	-0.00	0.050			
1.0192	65231.38	3.0900	3.0900	0.0666	25.06	-0.01	0.050			
1.0193	65235.64	3.0890	3.0891	0.0663	25.06	-0.01	0.050			
1.0194	65239.87	3.0880	3.0881	0.0660	25.06	-0.01	0.050			
1.0194	65244.09	3.0870	3.0870	0.0657	25.06	-0.01	0.050			
1.0195	65248.28	3.0860	3.0860	0.0654	25.06	-0.01	0.050			
1.0196	65252.45	3.0850	3.0849	0.0651	25.06	-0.01	0.050			
1.0196	65256.61	3.0840	3.0840	0.0647	25.06	-0.01	0.050			
1.0197	65260.74	3.0830	3.0830	0.0644	25.06	-0.01	0.050			
1.0198	65264.79	3.0820	3.0821	0.0643	25.06	-0.01	0.050			
1.0198	65268.83	3.0810	3.0811	0.0639	25.06	-0.01	0.050			
1.0199	65272.91	3.0800	3.0800	0.0636	25.06	-0.01	0.050			
1.0200	65276.97	3.0790	3.0790	0.0634	25.06	-0.01	0.050			
1.0200	65281.02	3.0780	3.0780	0.0632	25.07	-0.00	0.050			
1.0201	65285.06	3.0770	3.0771	0.0629	25.07	-0.00	0.050			
1.0201	65289.08	3.0760	3.0761	0.0627	25.07	-0.00	0.050			
1.0202	65293.08	3.0750	3.0751	0.0625	25.07	-0.00	0.050			
1.0203	65297.07	3.0740	3.0740	0.0622	25.07	-0.00	0.050			
1.0203	65301.11	3.0730	3.0730	0.0618	25.07	-0.00	0.050			
1.0204	65305.09	3.0720	3.0718	0.0616	25.07	-0.00	0.050			
1.0205	65309.02	3.0710	3.0710	0.0613	25.07	-0.00	0.050			
1.0205	65312.94	3.0700	3.0701	0.0611	25.07	-0.00	0.050			
1.0206	65316.84	3.0690	3.0691	0.0608	25.07	-0.00	0.050			
1.0206	65320.72	3.0680	3.0680	0.0605	25.07	-0.00	0.050			
1.0207	65324.58	3.0670	3.0670	0.0602	25.07	-0.00	0.050			
1.0208	65328.42	3.0660	3.0661	0.0599	25.07	-0.00	0.050			
1.0208	65332.25	3.0650	3.0651	0.0596	25.07	-0.00	0.050			
1.0209	65336.73	3.0640	3.0639	0.0577	25.06	-0.01	0.050			
1.0209	65340.40	3.0630	3.0629	0.0571	25.06	-0.01	0.050			
1.0210	65344.35	3.0620	3.0618	0.0580	25.06	-0.01	0.050			
1.0211	65348.04	3.0610	3.0609	0.0572	25.06	-0.01	0.050			
1.0211	65351.68	3.0600	3.0599	0.0565	25.06	-0.01	0.050			
1.0212	65355.27	3.0590	3.0589	0.0558	25.06	-0.01	0.050			
1.0212	65358.82	3.0580	3.0579	0.0551	25.06	-0.01	0.050			
1.0213	65362.32	3.0570	3.0571	0.0543	25.06	-0.01	0.050			
1.0213	65365.78	3.0560	3.0561	0.0536	25.06	-0.01	0.050			
1.0214	65369.19	3.0550	3.0551	0.0529	25.06	-0.01	0.050			
1.0214	65372.55	3.0540	3.0542	0.0522	25.06	-0.01	0.050			
1.0215	65376.45	3.0530	3.0531	0.0523	25.06	-0.01	0.050			
1.0216	65379.77	3.0520	3.0522	0.0514	25.06	-0.01	0.050			
1.0216	65383.03	3.0510	3.0512	0.0504	25.06	-0.01	0.050			
1.0217	65386.23	3.0500	3.0503	0.0495	25.06	-0.01	0.050			
1.0217	65389.37	3.0490	3.0494	0.0486	25.07	-0.00	0.050			
1.0218	65392.45	3.0480	3.0484	0.0477	25.07	-0.00	0.050			
1.0218	65395.47	3.0470	3.0475	0.0468	25.07	-0.00	0.050			
1.0219	65398.43	3.0460	3.0466	0.0458	25.07	-0.00	0.050			
1.0219	65401.34	3.0450	3.0457	0.0449	25.07	-0.00	0.050			
1.0219	65404.18	3.0440	3.0448	0.0440	25.07	-0.00	0.050			
1.0220	65406.97	3.0430	3.0439	0.0431	25.07	-0.00	0.050			
1.0220	65409.70	3.0420	3.0430	0.0421	25.07	-0.00	0.050			
1.0221	65412.36	3.0410	3.0420	0.0412	25.07	-0.00	0.050			
1.0221	65414.97	3.0400	3.0411	0.0403	25.07	0.00	0.050			
1.0221	65417.52	3.0390	3.0401	0.0394	25.07	0.00	0.050			
1.0222	65420.01	3.0380	3.0391	0.0385	25.07	0.00	0.050			
