Ah_balance (normalized)	Ah_balance (mAh)	Voltage - fit (V)	Voltage -  interpolate (V)	dQ/dV (1/V)	Temperature (°C)	Temperature - diff (°C)	Current (C)	R_DC 0ms (mOhm)	R_DC 50ms (mOhm)	R_DC 50 ms PEC (mOhm)
-0.0000	-2.90	4.1880	4.2423	-0.4243	24.98	0.00	-0.040			
0.0004	24.91	4.1870	4.1869	-0.4723	24.98	0.00	-0.050			
0.0009	56.61	4.1860	4.1856	-0.5258	24.98	0.00	-0.050			
0.0014	91.48	4.1850	4.1846	-0.5511	24.98	0.00	-0.050			
0.0020	128.35	4.1840	4.1837	-0.5725	24.98	-0.00	-0.050			
0.0026	166.32	4.1830	4.1828	-0.5873	24.97	-0.01	-0.050			
0.0032	204.26	4.1820	4.1822	-0.5977	24.97	-0.01	-0.050			
0.0038	243.29	4.1810	4.1813	-0.6079	24.97	-0.01	-0.050			
0.0044	283.01	4.1800	4.1801	-0.6168	24.97	-0.01	-0.050			
0.0050	322.58	4.1790	4.1791	-0.6259	24.97	-0.01	-0.050			
0.0057	362.83	4.1780	4.1784	-0.6352	24.96	-0.02	-0.050			
0.0063	403.84	4.1770	4.1774	-0.6442	24.95	-0.03	-0.050			
0.0070	445.39	4.1760	4.1763	-0.6532	24.96	-0.02	-0.050			
0.0077	490.72	4.1750	4.1748	-0.6658	24.97	-0.01	-0.050			
0.0083	533.36	4.1740	4.1738	-0.6722	25.00	0.02	-0.050			
0.0090	576.18	4.1730	4.1727	-0.6780	25.00	0.02	-0.050			
0.0097	618.59	4.1720	4.1715	-0.6797	25.00	0.02	-0.050			
0.0104	662.59	4.1710	4.1709	-0.6856	24.99	0.01	-0.050			
0.0111	707.41	4.1700	4.1699	-0.6914	24.98	-0.00	-0.050			
0.0118	752.13	4.1690	4.1691	-0.6976	24.97	-0.01	-0.050			
0.0125	797.81	4.1680	4.1681	-0.7014	24.97	-0.01	-0.050			
0.0132	843.17	4.1670	4.1673	-0.7088	24.96	-0.02	-0.050			
0.0139	889.23	4.1660	4.1659	-0.7149	24.97	-0.01	-0.050			
0.0146	935.81	4.1650	4.1650	-0.7222	24.97	-0.01	-0.050			
0.0153	982.21	4.1640	4.1640	-0.7256	24.97	-0.01	-0.050			
0.0161	1029.20	4.1630	4.1630	-0.7297	24.97	-0.01	-0.050			
0.0168	1075.95	4.1620	4.1620	-0.7323	24.98	0.00	-0.050			
0.0175	1122.73	4.1610	4.1612	-0.7341	25.00	0.02	-0.050			
0.0183	1170.35	4.1600	4.1599	-0.7365	25.00	0.02	-0.050			
0.0190	1217.30	4.1590	4.1587	-0.7388	25.01	0.03	-0.050			
0.0198	1264.24	4.1580	4.1579	-0.7403	25.01	0.03	-0.050	0.594	0.797	
0.0205	1311.48	4.1570	4.1571	-0.7440	25.01	0.03	-0.050			
0.0212	1359.51	4.1560	4.1562	-0.7469	25.01	0.03	-0.050			
0.0220	1407.45	4.1550	4.1550	-0.7494	25.01	0.03	-0.050			
0.0227	1455.54	4.1540	4.1541	-0.7530	25.01	0.03	-0.050			
0.0235	1503.96	4.1530	4.1530	-0.7550	25.01	0.03	-0.050			
0.0243	1552.41	4.1520	4.1522	-0.7583	25.01	0.03	-0.050			
0.0250	1600.51	4.1510	4.1511	-0.7633	25.02	0.04	-0.050			
0.0258	1649.27	4.1500	4.1501	-0.7686	25.02	0.04	-0.050			
0.0265	1698.31	4.1490	4.1488	-0.7732	25.03	0.05	-0.050			
0.0273	1747.97	4.1480	4.1479	-0.7751	25.03	0.05	-0.050			
0.0281	1797.33	4.1470	4.1472	-0.7802	25.04	0.06	-0.050			
0.0289	1846.71	4.1460	4.1460	-0.7826	25.04	0.06	-0.050			
0.0297	1897.62	4.1450	4.1446	-0.7861	25.05	0.07	-0.050			
0.0304	1948.12	4.1440	4.1440	-0.7892	25.05	0.07	-0.050			
0.0312	1999.76	4.1430	4.1431	-0.7918	25.05	0.07	-0.050			
0.0321	2051.23	4.1420	4.1418	-0.7930	25.05	0.07	-0.050			
0.0329	2102.72	4.1410	4.1410	-0.7940	25.05	0.07	-0.050			
0.0337	2155.23	4.1400	4.1402	-0.7936	25.04	0.06	-0.050			
0.0345	2206.73	4.1390	4.1391	-0.7932	25.03	0.05	-0.050			
0.0353	2257.36	4.1380	4.1379	-0.7916	25.03	0.05	-0.050			
0.0361	2308.36	4.1370	4.1371	-0.7923	25.02	0.04	-0.050			
0.0369	2359.68	4.1360	4.1361	-0.7918	25.01	0.03	-0.050			
0.0377	2410.02	4.1350	4.1349	-0.7915	25.01	0.03	-0.050			
0.0384	2460.47	4.1340	4.1341	-0.7889	25.01	0.03	-0.050			
0.0392	2509.73	4.1330	4.1330	-0.7905	25.01	0.03	-0.050			
0.0400	2559.39	4.1320	4.1321	-0.7886	25.01	0.03	-0.050			
0.0408	2609.18	4.1310	4.1310	-0.7869	25.01	0.03	-0.050			
0.0415	2658.72	4.1300	4.1298	-0.7878	25.01	0.03	-0.050			
0.0423	2708.71	4.1290	4.1288	-0.7904	25.01	0.03	-0.050			
0.0431	2758.96	4.1280	4.1281	-0.7933	25.01	0.03	-0.050			
0.0439	2809.78	4.1270	4.1271	-0.7956	25.02	0.04	-0.050			
0.0447	2860.30	4.1260	4.1258	-0.7972	25.02	0.04	-0.050			
0.0455	2911.88	4.1250	4.1251	-0.8003	25.03	0.05	-0.050			
0.0463	2963.60	4.1240	4.1239	-0.8015	25.03	0.05	-0.050			
0.0471	3015.24	4.1230	4.1231	-0.8053	25.03	0.05	-0.050			
0.0479	3067.63	4.1220	4.1220	-0.8074	25.04	0.06	-0.050			
0.0487	3119.74	4.1210	4.1211	-0.8090	25.05	0.07	-0.050			
0.0496	3172.03	4.1200	4.1198	-0.8124	25.05	0.07	-0.050			
0.0504	3224.39	4.1190	4.1190	-0.8142	25.05	0.07	-0.050			
0.0512	3276.20	4.1180	4.1182	-0.8136	25.05	0.07	-0.050			
0.0520	3328.56	4.1170	4.1170	-0.8136	25.05	0.07	-0.050			
0.0528	3380.81	4.1160	4.1159	-0.8144	25.06	0.08	-0.050			
0.0536	3432.81	4.1150	4.1151	-0.8149	25.06	0.08	-0.050			
0.0544	3484.28	4.1140	4.1139	-0.8164	25.07	0.09	-0.050			
0.0553	3536.49	4.1130	4.1129	-0.8166	25.07	0.09	-0.050			
0.0561	3589.20	4.1120	4.1119	-0.8177	25.06	0.08	-0.050			
0.0569	3641.00	4.1110	4.1113	-0.8219	25.05	0.07	-0.050			
0.0577	3692.90	4.1100	4.1098	-0.8229	25.06	0.08	-0.050			
0.0585	3745.32	4.1090	4.1091	-0.8255	25.06	0.08	-0.050			
0.0593	3798.25	4.1080	4.1082	-0.8271	25.06	0.08	-0.050			
0.0602	3851.38	4.1070	4.1071	-0.8305	25.05	0.07	-0.050	0.159	0.441	
0.0610	3905.63	4.1060	4.1059	-0.8310	25.05	0.07	-0.050			
0.0619	3959.47	4.1050	4.1050	-0.8311	25.04	0.06	-0.050			
0.0627	4013.62	4.1040	4.1038	-0.8299	25.03	0.05	-0.050			
0.0635	4066.97	4.1030	4.1029	-0.8284	25.03	0.05	-0.050			
0.0644	4120.30	4.1020	4.1021	-0.8283	25.03	0.05	-0.050			
0.0652	4173.72	4.1010	4.1010	-0.8280	25.03	0.05	-0.050			
0.0660	4227.15	4.1000	4.1000	-0.8266	25.02	0.04	-0.050			
0.0669	4280.13	4.0990	4.0990	-0.8235	25.01	0.03	-0.050			
0.0677	4332.96	4.0980	4.0980	-0.8250	25.01	0.03	-0.050			
0.0685	4386.08	4.0970	4.0970	-0.8259	25.01	0.03	-0.050			
0.0693	4437.94	4.0960	4.0962	-0.8245	25.00	0.02	-0.050			
0.0702	4490.02	4.0950	4.0948	-0.8230	24.98	-0.00	-0.050			
0.0710	4542.15	4.0940	4.0940	-0.8205	24.97	-0.01	-0.050			
0.0718	4594.77	4.0930	4.0930	-0.8199	24.96	-0.02	-0.050			
0.0726	4646.58	4.0920	4.0920	-0.8206	24.95	-0.03	-0.050			
0.0734	4697.52	4.0910	4.0911	-0.8191	24.95	-0.03	-0.050			
0.0742	4749.48	4.0900	4.0900	-0.8206	24.95	-0.03	-0.050			
0.0750	4801.90	4.0890	4.0893	-0.8235	24.95	-0.03	-0.050			
0.0759	4854.43	4.0880	4.0881	-0.8271	24.95	-0.03	-0.050			
0.0767	4907.55	4.0870	4.0872	-0.8309	24.95	-0.03	-0.050			
0.0775	4961.00	4.0860	4.0863	-0.8354	24.95	-0.03	-0.050			
0.0784	5014.92	4.0850	4.0847	-0.8416	24.95	-0.03	-0.050			
0.0792	5068.90	4.0840	4.0839	-0.8440	24.96	-0.02	-0.050			
0.0800	5123.18	4.0830	4.0832	-0.8465	24.97	-0.01	-0.050			
0.0809	5177.47	4.0820	4.0820	-0.8467	24.98	0.00	-0.050			
0.0818	5232.16	4.0810	4.0811	-0.8477	24.99	0.01	-0.050			
0.0826	5286.75	4.0800	4.0799	-0.8509	25.00	0.02	-0.050			
0.0835	5341.45	4.0790	4.0789	-0.8532	25.00	0.02	-0.050			
0.0843	5395.61	4.0780	4.0781	-0.8541	25.01	0.03	-0.050			
0.0852	5451.06	4.0770	4.0770	-0.8559	25.01	0.03	-0.050			
0.0860	5505.92	4.0760	4.0760	-0.8590	25.01	0.03	-0.050			
0.0869	5561.16	4.0750	4.0753	-0.8621	25.02	0.04	-0.050			
0.0878	5616.14	4.0740	4.0738	-0.8647	25.01	0.03	-0.050			
0.0886	5671.91	4.0730	4.0731	-0.8663	25.02	0.04	-0.050			
0.0895	5726.77	4.0720	4.0721	-0.8667	25.02	0.04	-0.050			
0.0904	5782.59	4.0710	4.0709	-0.8669	25.03	0.05	-0.050			
0.0912	5838.64	4.0700	4.0701	-0.8662	25.03	0.05	-0.050			
0.0921	5893.55	4.0690	4.0687	-0.8677	25.03	0.05	-0.050			
0.0930	5949.37	4.0680	4.0681	-0.8676	25.03	0.05	-0.050			
0.0938	6005.27	4.0670	4.0668	-0.8672	25.02	0.04	-0.050			
0.0947	6060.87	4.0660	4.0658	-0.8669	25.02	0.04	-0.050			
0.0956	6117.16	4.0650	4.0651	-0.8651	25.01	0.03	-0.050			
0.0965	6174.42	4.0640	4.0640	-0.8624	25.01	0.03	-0.050			
0.0973	6229.92	4.0630	4.0630	-0.8599	25.01	0.03	-0.050			
0.0982	6285.60	4.0620	4.0621	-0.8581	25.00	0.02	-0.050			
0.0991	6339.87	4.0610	4.0610	-0.8569	25.00	0.02	-0.050			
0.0999	6394.45	4.0600	4.0600	-0.8540	25.00	0.02	-0.050	0.621	0.757	
0.1008	6448.63	4.0590	4.0591	-0.8507	25.00	0.02	-0.050			
0.1016	6501.62	4.0580	4.0579	-0.8507	24.98	0.00	-0.050			
0.1024	6555.57	4.0570	4.0572	-0.8513	24.97	-0.01	-0.050			
0.1033	6608.66	4.0560	4.0560	-0.8506	24.97	-0.01	-0.050			
0.1041	6662.25	4.0550	4.0548	-0.8499	24.95	-0.03	-0.050			
0.1049	6715.94	4.0540	4.0540	-0.8524	24.95	-0.03	-0.050			
0.1058	6770.21	4.0530	4.0529	-0.8545	24.95	-0.03	-0.050			
0.1066	6824.29	4.0520	4.0519	-0.8574	24.95	-0.03	-0.050			
0.1075	6879.51	4.0510	4.0511	-0.8599	24.95	-0.03	-0.050			
0.1084	6935.01	4.0500	4.0497	-0.8633	24.95	-0.03	-0.050			
0.1092	6990.12	4.0490	4.0489	-0.8630	24.95	-0.03	-0.050			
0.1101	7046.10	4.0480	4.0481	-0.8656	24.95	-0.03	-0.050			
0.1110	7102.44	4.0470	4.0471	-0.8695	24.95	-0.03	-0.050			
0.1119	7159.60	4.0460	4.0461	-0.8692	24.95	-0.03	-0.050			
0.1127	7215.87	4.0450	4.0447	-0.8703	24.95	-0.03	-0.050			
0.1136	7273.16	4.0440	4.0441	-0.8709	24.96	-0.02	-0.050			
0.1145	7328.96	4.0430	4.0429	-0.8697	24.97	-0.01	-0.050			
0.1154	7383.72	4.0420	4.0421	-0.8683	24.97	-0.01	-0.050			
0.1162	7438.92	4.0410	4.0411	-0.8675	24.98	-0.00	-0.050			
0.1171	7493.94	4.0400	4.0400	-0.8675	24.99	0.01	-0.050			
0.1179	7548.75	4.0390	4.0389	-0.8706	24.99	0.01	-0.050			
0.1188	7603.39	4.0380	4.0381	-0.8702	24.99	0.01	-0.050			
0.1197	7657.85	4.0370	4.0372	-0.8752	25.00	0.02	-0.050			
0.1205	7713.00	4.0360	4.0361	-0.8799	25.00	0.02	-0.050	0.436	0.543	
0.1214	7768.92	4.0350	4.0350	-0.8835	25.00	0.02	-0.050			
0.1223	7825.09	4.0340	4.0338	-0.8858	25.00	0.02	-0.050			
0.1232	7882.81	4.0330	4.0329	-0.8878	25.00	0.02	-0.050			
0.1241	7940.74	4.0320	4.0319	-0.8872	25.00	0.02	-0.050			
0.1250	7998.83	4.0310	4.0310	-0.8891	25.00	0.02	-0.050			
0.1259	8057.18	4.0300	4.0299	-0.8885	25.01	0.03	-0.050			
0.1268	8114.58	4.0290	4.0291	-0.8882	25.00	0.02	-0.050			
0.1277	8171.45	4.0280	4.0279	-0.8921	25.00	0.02	-0.050			
0.1286	8228.44	4.0270	4.0272	-0.8930	25.00	0.02	-0.050			
0.1295	8287.23	4.0260	4.0262	-0.8949	25.00	0.02	-0.050			
0.1304	8344.14	4.0250	4.0252	-0.8947	24.99	0.01	-0.050			
0.1313	8400.86	4.0240	4.0243	-0.8959	24.98	-0.00	-0.050			
0.1322	8457.90	4.0230	4.0225	-0.8953	24.97	-0.01	-0.050			
0.1330	8514.33	4.0220	4.0221	-0.8928	24.97	-0.01	-0.050			
0.1339	8571.14	4.0210	4.0208	-0.8931	24.96	-0.02	-0.050			
0.1348	8627.99	4.0200	4.0198	-0.8914	24.96	-0.02	-0.050			
0.1357	8684.08	4.0190	4.0189	-0.8903	24.95	-0.03	-0.050			
0.1366	8740.95	4.0180	4.0180	-0.8908	24.96	-0.02	-0.050			
0.1375	8797.53	4.0170	4.0172	-0.8896	24.95	-0.03	-0.050			
0.1384	8854.91	4.0160	4.0157	-0.8924	24.97	-0.01	-0.050			
0.1393	8912.84	4.0150	4.0151	-0.8944	24.97	-0.01	-0.050			
0.1402	8971.06	4.0140	4.0137	-0.8958	24.97	-0.01	-0.050	0.458	0.359	
0.1411	9029.33	4.0130	4.0132	-0.8969	24.97	-0.01	-0.050			
0.1420	9087.43	4.0120	4.0119	-0.8982	24.97	-0.01	-0.050			
0.1429	9144.53	4.0110	4.0110	-0.8978	24.97	-0.01	-0.050			
0.1438	9201.43	4.0100	4.0102	-0.9006	24.97	-0.01	-0.050			
0.1447	9257.85	4.0090	4.0089	-0.8984	24.97	-0.01	-0.050			
0.1455	9313.97	4.0080	4.0081	-0.8992	24.97	-0.01	-0.050			
0.1464	9371.09	4.0070	4.0072	-0.9032	24.97	-0.01	-0.050			
0.1473	9428.71	4.0060	4.0059	-0.9086	24.97	-0.01	-0.050			
0.1482	9486.09	4.0050	4.0050	-0.9123	24.97	-0.01	-0.050			
0.1491	9544.50	4.0040	4.0040	-0.9138	24.97	-0.01	-0.050			
0.1500	9602.91	4.0030	4.0030	-0.9196	24.97	-0.01	-0.050			
0.1510	9661.94	4.0020	4.0019	-0.9253	24.99	0.01	-0.050			
0.1519	9721.50	4.0010	4.0012	-0.9294	25.00	0.02	-0.050			
0.1528	9781.50	4.0000	4.0001	-0.9324	25.00	0.02	-0.050			
0.1538	9842.15	3.9990	3.9991	-0.9353	25.02	0.04	-0.050			
0.1547	9902.74	3.9980	3.9979	-0.9378	25.03	0.05	-0.050			
0.1557	9963.85	3.9970	3.9972	-0.9410	25.03	0.05	-0.050			
0.1567	10026.08	3.9960	3.9960	-0.9403	25.04	0.06	-0.050			
0.1576	10087.06	3.9950	3.9951	-0.9380	25.03	0.05	-0.050			
0.1586	10148.50	3.9940	3.9938	-0.9370	25.03	0.05	-0.050			
0.1595	10208.88	3.9930	3.9931	-0.9330	25.03	0.05	-0.050			
0.1605	10269.05	3.9920	3.9921	-0.9292	25.03	0.05	-0.050	0.519	0.449	
0.1614	10328.08	3.9910	3.9910	-0.9257	25.03	0.05	-0.050			
0.1623	10386.42	3.9900	3.9900	-0.9232	25.03	0.05	-0.050			
0.1632	10445.18	3.9890	3.9890	-0.9216	25.03	0.05	-0.050			
0.1641	10502.46	3.9880	3.9881	-0.9206	25.03	0.05	-0.050			
0.1650	10560.61	3.9870	3.9873	-0.9190	25.02	0.04	-0.050			
0.1659	10617.96	3.9860	3.9861	-0.9199	25.03	0.05	-0.050			
0.1668	10676.63	3.9850	3.9850	-0.9199	25.03	0.05	-0.050			
0.1677	10734.46	3.9840	3.9838	-0.9226	25.03	0.05	-0.050			
0.1686	10792.93	3.9830	3.9830	-0.9231	25.03	0.05	-0.050			
0.1696	10851.64	3.9820	3.9818	-0.9240	25.03	0.05	-0.050			
0.1705	10910.74	3.9810	3.9810	-0.9275	25.04	0.06	-0.050			
0.1714	10970.26	3.9800	3.9801	-0.9304	25.05	0.07	-0.050			
0.1723	11030.15	3.9790	3.9789	-0.9338	25.05	0.07	-0.050			
0.1733	11090.42	3.9780	3.9780	-0.9367	25.05	0.07	-0.050			
0.1742	11151.08	3.9770	3.9771	-0.9401	25.07	0.09	-0.050			
0.1752	11212.60	3.9760	3.9760	-0.9454	25.07	0.09	-0.050			
0.1762	11274.05	3.9750	3.9750	-0.9473	25.08	0.10	-0.050			
0.1771	11334.82	3.9740	3.9741	-0.9475	25.08	0.10	-0.050			
0.1781	11395.70	3.9730	3.9729	-0.9482	25.09	0.11	-0.050			
0.1790	11456.37	3.9720	3.9716	-0.9484	25.10	0.12	-0.050			
0.1799	11516.64	3.9710	3.9711	-0.9485	25.09	0.11	-0.050			
0.1809	11576.03	3.9700	3.9699	-0.9506	25.09	0.11	-0.050			
0.1818	11636.40	3.9690	3.9691	-0.9559	25.10	0.12	-0.050			
0.1828	11696.68	3.9680	3.9678	-0.9567	25.09	0.11	-0.050			
0.1837	11758.76	3.9670	3.9671	-0.9583	25.10	0.12	-0.050			
0.1847	11820.70	3.9660	3.9660	-0.9578	25.10	0.12	-0.050			
0.1857	11882.73	3.9650	3.9651	-0.9586	25.10	0.12	-0.050			
0.1866	11944.51	3.9640	3.9638	-0.9575	25.10	0.12	-0.050			
0.1876	12006.63	3.9630	3.9629	-0.9602	25.10	0.12	-0.050			
0.1886	12068.07	3.9620	3.9620	-0.9608	25.09	0.11	-0.050			
0.1895	12129.56	3.9610	3.9610	-0.9603	25.08	0.10	-0.050			
0.1905	12191.33	3.9600	3.9603	-0.9612	25.07	0.09	-0.050			
0.1915	12253.86	3.9590	3.9592	-0.9582	25.07	0.09	-0.050			
0.1924	12314.88	3.9580	3.9583	-0.9601	25.06	0.08	-0.050			
0.1934	12376.46	3.9570	3.9568	-0.9583	25.05	0.07	-0.050			
0.1943	12438.17	3.9560	3.9561	-0.9570	25.05	0.07	-0.050			
0.1953	12499.56	3.9550	3.9548	-0.9565	25.03	0.05	-0.050			
0.1963	12560.44	3.9540	3.9541	-0.9544	25.02	0.04	-0.050			
0.1972	12620.92	3.9530	3.9530	-0.9530	25.01	0.03	-0.050			
0.1981	12681.34	3.9520	3.9521	-0.9507	25.00	0.02	-0.050			
0.1991	12741.23	3.9510	3.9510	-0.9509	25.00	0.02	-0.050			
0.2000	12800.96	3.9500	3.9501	-0.9502	25.00	0.02	-0.050	0.486	0.417	
0.2010	12861.48	3.9490	3.9489	-0.9519	24.99	0.01	-0.050			
0.2019	12922.87	3.9480	3.9483	-0.9537	25.00	0.02	-0.050			
0.2029	12984.41	3.9470	3.9471	-0.9591	25.00	0.02	-0.050			
0.2038	13045.97	3.9460	3.9460	-0.9611	24.99	0.01	-0.050			
0.2048	13107.65	3.9450	3.9449	-0.9628	24.99	0.01	-0.050			
0.2058	13168.79	3.9440	3.9439	-0.9616	24.98	0.00	-0.050			
0.2067	13229.89	3.9430	3.9430	-0.9625	24.98	-0.00	-0.050			
0.2077	13291.21	3.9420	3.9418	-0.9661	24.97	-0.01	-0.050			
0.2086	13353.11	3.9410	3.9411	-0.9699	24.97	-0.01	-0.050			
0.2096	13414.81	3.9400	3.9400	-0.9756	24.99	0.01	-0.050			
0.2106	13477.02	3.9390	3.9391	-0.9813	24.98	0.00	-0.050			
0.2115	13538.95	3.9380	3.9378	-0.9834	25.00	0.02	-0.050			
0.2125	13602.53	3.9370	3.9372	-0.9910	25.00	0.02	-0.050			
0.2135	13666.83	3.9360	3.9360	-0.9950	25.00	0.02	-0.050			
0.2145	13731.07	3.9350	3.9348	-0.9964	25.00	0.02	-0.050			
0.2155	13795.07	3.9340	3.9341	-0.9987	25.01	0.03	-0.050			
0.2166	13860.15	3.9330	3.9329	-1.0001	25.01	0.03	-0.050			
0.2176	13924.16	3.9320	3.9321	-1.0027	25.01	0.03	-0.050			
0.2186	13989.70	3.9310	3.9310	-1.0013	25.01	0.03	-0.050			
0.2196	14055.37	3.9300	3.9300	-1.0005	25.01	0.03	-0.050			
0.2206	14120.61	3.9290	3.9292	-0.9970	25.01	0.03	-0.050	0.408	0.669	
0.2217	14185.72	3.9280	3.9281	-0.9942	25.00	0.02	-0.050			
0.2226	14249.14	3.9270	3.9272	-0.9901	25.00	0.02	-0.050			
0.2236	14313.57	3.9260	3.9260	-0.9879	25.00	0.02	-0.050			
0.2246	14376.86	3.9250	3.9247	-0.9858	24.99	0.01	-0.050			
0.2256	14439.87	3.9240	3.9242	-0.9803	24.98	0.00	-0.050			
0.2266	14500.97	3.9230	3.9229	-0.9762	24.97	-0.01	-0.050			
0.2275	14562.26	3.9220	3.9222	-0.9736	24.97	-0.01	-0.050			
0.2285	14623.27	3.9210	3.9212	-0.9695	24.97	-0.01	-0.050			
0.2294	14683.28	3.9200	3.9199	-0.9665	24.96	-0.02	-0.050			
0.2304	14744.59	3.9190	3.9189	-0.9672	24.96	-0.02	-0.050			
0.2313	14805.06	3.9180	3.9178	-0.9695	24.95	-0.03	-0.050			
0.2323	14865.95	3.9170	3.9171	-0.9720	24.95	-0.03	-0.050			
0.2333	14928.34	3.9160	3.9159	-0.9778	24.95	-0.03	-0.050			
0.2342	14991.13	3.9150	3.9150	-0.9809	24.95	-0.03	-0.050			
0.2352	15053.35	3.9140	3.9137	-0.9819	24.95	-0.03	-0.050			
0.2362	15116.69	3.9130	3.9130	-0.9866	24.95	-0.03	-0.050			
0.2372	15180.04	3.9120	3.9118	-0.9907	24.96	-0.02	-0.050			
0.2382	15244.99	3.9110	3.9110	-0.9961	24.97	-0.01	-0.050			
0.2392	15310.33	3.9100	3.9100	-1.0006	24.97	-0.01	-0.050			
0.2402	15374.24	3.9090	3.9090	-1.0025	24.97	-0.01	-0.050			
0.2412	15438.36	3.9080	3.9081	-1.0046	24.97	-0.01	-0.050			
0.2422	15502.71	3.9070	3.9070	-1.0062	24.97	-0.01	-0.050			
0.2432	15567.21	3.9060	3.9061	-1.0115	24.97	-0.01	-0.050			
0.2442	15631.71	3.9050	3.9051	-1.0139	24.98	0.00	-0.050			
0.2453	15696.16	3.9040	3.9037	-1.0174	24.98	0.00	-0.050			
0.2463	15763.04	3.9030	3.9031	-1.0161	24.97	-0.01	-0.050			
0.2473	15828.69	3.9020	3.9019	-1.0167	24.97	-0.01	-0.050			
0.2483	15894.28	3.9010	3.9006	-1.0139	24.97	-0.01	-0.050			
0.2494	15959.49	3.9000	3.9002	-1.0136	24.97	-0.01	-0.050			
0.2504	16024.65	3.8990	3.8989	-1.0113	24.97	-0.01	-0.050			
0.2514	16089.65	3.8980	3.8979	-1.0086	24.98	0.00	-0.050			
0.2524	16154.21	3.8970	3.8970	-1.0094	24.99	0.01	-0.050			
0.2534	16218.76	3.8960	3.8959	-1.0091	24.98	0.00	-0.050			
0.2544	16283.99	3.8950	3.8952	-1.0090	25.00	0.02	-0.050			
0.2554	16348.59	3.8940	3.8943	-1.0068	25.00	0.02	-0.050			
0.2565	16413.01	3.8930	3.8929	-1.0048	24.99	0.01	-0.050			
0.2575	16477.21	3.8920	3.8921	-1.0016	24.99	0.01	-0.050			
0.2585	16540.81	3.8910	3.8909	-1.0005	24.98	0.00	-0.050			
0.2594	16603.99	3.8900	3.8900	-0.9992	24.98	-0.00	-0.050			
0.2604	16666.09	3.8890	3.8892	-1.0005	24.98	0.00	-0.050	0.481	0.409	
0.2614	16729.12	3.8880	3.8878	-1.0029	25.00	0.02	-0.050			
0.2624	16792.25	3.8870	3.8871	-1.0047	25.01	0.03	-0.050			
0.2634	16856.09	3.8860	3.8860	-1.0044	25.01	0.03	-0.050			
0.2644	16920.83	3.8850	3.8852	-1.0075	25.03	0.05	-0.050			
0.2654	16985.77	3.8840	3.8838	-1.0110	25.03	0.05	-0.050			
0.2664	17052.21	3.8830	3.8828	-1.0164	25.05	0.07	-0.050			
0.2675	17118.03	3.8820	3.8821	-1.0185	25.05	0.07	-0.050			
0.2685	17183.43	3.8810	3.8808	-1.0178	25.06	0.08	-0.050			
0.2695	17248.26	3.8800	3.8800	-1.0198	25.07	0.09	-0.050			
0.2705	17314.03	3.8790	3.8791	-1.0207	25.07	0.09	-0.050			
0.2715	17378.88	3.8780	3.8781	-1.0242	25.07	0.09	-0.050			
0.2726	17443.99	3.8770	3.8772	-1.0254	25.07	0.09	-0.050			
0.2736	17509.92	3.8760	3.8761	-1.0295	25.07	0.09	-0.050			
0.2746	17576.64	3.8750	3.8748	-1.0303	25.08	0.10	-0.050			
0.2757	17643.18	3.8740	3.8740	-1.0321	25.09	0.11	-0.050			
0.2767	17709.48	3.8730	3.8730	-1.0310	25.09	0.11	-0.050			
0.2777	17775.20	3.8720	3.8720	-1.0327	25.09	0.11	-0.050			
0.2788	17840.83	3.8710	3.8710	-1.0299	25.09	0.11	-0.050			
0.2798	17906.40	3.8700	3.8700	-1.0297	25.08	0.10	-0.050			
0.2808	17972.57	3.8690	3.8686	-1.0271	25.07	0.09	-0.050			
0.2819	18039.28	3.8680	3.8683	-1.0269	25.07	0.09	-0.050			
0.2829	18105.86	3.8670	3.8670	-1.0250	25.06	0.08	-0.050			
0.2839	18172.26	3.8660	3.8661	-1.0252	25.05	0.07	-0.050			
0.2850	18238.24	3.8650	3.8649	-1.0245	25.03	0.05	-0.050			
0.2860	18303.04	3.8640	3.8640	-1.0228	25.03	0.05	-0.050			
0.2870	18369.17	3.8630	3.8628	-1.0204	25.02	0.04	-0.050			
0.2880	18434.48	3.8620	3.8622	-1.0180	25.01	0.03	-0.050			
0.2891	18499.26	3.8610	3.8609	-1.0164	25.01	0.03	-0.050			
0.2900	18562.33	3.8600	3.8602	-1.0151	25.01	0.03	-0.050			
0.2910	18626.42	3.8590	3.8590	-1.0148	25.01	0.03	-0.050			
0.2920	18690.60	3.8580	3.8579	-1.0146	25.01	0.03	-0.050			
0.2930	18754.66	3.8570	3.8570	-1.0178	25.01	0.03	-0.050			
0.2940	18819.09	3.8560	3.8559	-1.0204	25.02	0.04	-0.050			
0.2951	18885.08	3.8550	3.8551	-1.0233	25.03	0.05	-0.050			
0.2961	18950.32	3.8540	3.8541	-1.0241	25.03	0.05	-0.050			
0.2971	19015.68	3.8530	3.8528	-1.0276	25.05	0.07	-0.050			
0.2981	19081.31	3.8520	3.8520	-1.0293	25.05	0.07	-0.050			
0.2992	19148.20	3.8510	3.8510	-1.0334	25.05	0.07	-0.050			
0.3002	19214.78	3.8500	3.8499	-1.0354	25.05	0.07	-0.050	0.330	0.629	
0.3013	19282.42	3.8490	3.8492	-1.0379	25.07	0.09	-0.050			
0.3023	19349.75	3.8480	3.8480	-1.0392	25.07	0.09	-0.050			
0.3034	19416.31	3.8470	3.8468	-1.0391	25.06	0.08	-0.050			
0.3044	19481.86	3.8460	3.8462	-1.0427	25.07	0.09	-0.050			
0.3054	19547.72	3.8450	3.8449	-1.0477	25.06	0.08	-0.050			
0.3065	19615.19	3.8440	3.8437	-1.0502	25.05	0.07	-0.050			
0.3075	19683.11	3.8430	3.8432	-1.0515	25.05	0.07	-0.050			
0.3086	19751.11	3.8420	3.8420	-1.0506	25.05	0.07	-0.050			
0.3097	19818.31	3.8410	3.8407	-1.0492	25.04	0.06	-0.050			
0.3107	19886.06	3.8400	3.8398	-1.0442	25.03	0.05	-0.050			
0.3118	19953.45	3.8390	3.8390	-1.0431	25.03	0.05	-0.050			
0.3128	20020.77	3.8380	3.8378	-1.0420	25.02	0.04	-0.050			
0.3139	20088.27	3.8370	3.8369	-1.0371	25.01	0.03	-0.050			
0.3149	20154.01	3.8360	3.8361	-1.0357	25.00	0.02	-0.050			
0.3160	20221.32	3.8350	3.8353	-1.0365	25.00	0.02	-0.050			
0.3170	20286.90	3.8340	3.8341	-1.0363	25.00	0.02	-0.050			
0.3180	20352.48	3.8330	3.8331	-1.0357	24.98	0.00	-0.050			
0.3190	20418.88	3.8320	3.8321	-1.0346	24.97	-0.01	-0.050			
0.3201	20484.63	3.8310	3.8309	-1.0314	24.96	-0.02	-0.050			
0.3211	20550.36	3.8300	3.8298	-1.0318	24.95	-0.03	-0.050			
0.3221	20616.16	3.8290	3.8289	-1.0301	24.95	-0.03	-0.050			
0.3231	20681.28	3.8280	3.8279	-1.0304	24.95	-0.03	-0.050			
0.3241	20745.39	3.8270	3.8269	-1.0297	24.95	-0.03	-0.050			
0.3252	20810.46	3.8260	3.8260	-1.0270	24.95	-0.03	-0.050			
0.3262	20876.41	3.8250	3.8252	-1.0282	24.95	-0.03	-0.050			
0.3272	20943.45	3.8240	3.8241	-1.0321	24.95	-0.03	-0.050			
0.3283	21010.17	3.8230	3.8229	-1.0353	24.96	-0.02	-0.050			
0.3293	21076.85	3.8220	3.8222	-1.0383	24.97	-0.01	-0.050			
0.3304	21143.64	3.8210	3.8210	-1.0416	24.98	-0.00	-0.050			
0.3314	21211.14	3.8200	3.8200	-1.0417	24.99	0.01	-0.050			
0.3325	21278.13	3.8190	3.8191	-1.0396	25.00	0.02	-0.050			
0.3335	21344.91	3.8180	3.8181	-1.0390	25.00	0.02	-0.050			
0.3346	21411.44	3.8170	3.8170	-1.0398	25.00	0.02	-0.050			
0.3356	21477.16	3.8160	3.8162	-1.0366	25.01	0.03	-0.050			
0.3366	21542.78	3.8150	3.8149	-1.0378	25.01	0.03	-0.050			
0.3376	21609.01	3.8140	3.8140	-1.0398	25.01	0.03	-0.050			
0.3387	21675.86	3.8130	3.8133	-1.0414	25.01	0.03	-0.050			
0.3397	21742.62	3.8120	3.8119	-1.0417	25.01	0.03	-0.050			
0.3408	21810.22	3.8110	3.8111	-1.0410	25.01	0.03	-0.050	0.390	0.568	
0.3418	21877.09	3.8100	3.8100	-1.0370	25.01	0.03	-0.050			
0.3429	21944.46	3.8090	3.8088	-1.0334	25.01	0.03	-0.050			
0.3439	22011.73	3.8080	3.8078	-1.0253	25.00	0.02	-0.050			
0.3450	22078.24	3.8070	3.8072	-1.0201	25.00	0.02	-0.050			
0.3460	22145.01	3.8060	3.8060	-1.0154	25.00	0.02	-0.050			
0.3470	22210.20	3.8050	3.8050	-1.0108	25.00	0.02	-0.050			
0.3480	22274.26	3.8040	3.8042	-1.0024	25.00	0.02	-0.050			
0.3490	22337.89	3.8030	3.8031	-0.9964	24.99	0.01	-0.050			
0.3500	22401.76	3.8020	3.8022	-0.9907	25.00	0.02	-0.050			
0.3510	22464.59	3.8010	3.8011	-0.9840	25.00	0.02	-0.050			
0.3520	22527.44	3.8000	3.8000	-0.9800	25.00	0.02	-0.050			
0.3530	22589.26	3.7990	3.7989	-0.9739	25.00	0.02	-0.050			
0.3539	22649.87	3.7980	3.7977	-0.9669	25.00	0.02	-0.050			
0.3548	22710.31	3.7970	3.7969	-0.9594	25.00	0.02	-0.050			
0.3558	22771.50	3.7960	3.7956	-0.9560	25.00	0.02	-0.050			
0.3567	22831.11	3.7950	3.7952	-0.9501	25.00	0.02	-0.050			
0.3577	22891.16	3.7940	3.7940	-0.9476	25.00	0.02	-0.050			
0.3586	22951.77	3.7930	3.7931	-0.9455	25.00	0.02	-0.050			
0.3596	23012.46	3.7920	3.7919	-0.9443	25.02	0.04	-0.050			
0.3605	23074.00	3.7910	3.7909	-0.9431	25.03	0.05	-0.050	0.655	0.768	
0.3615	23134.84	3.7900	3.7901	-0.9420	25.03	0.05	-0.050			
0.3624	23196.00	3.7890	3.7891	-0.9392	25.04	0.06	-0.050			
0.3634	23256.68	3.7880	3.7879	-0.9352	25.05	0.07	-0.050			
0.3643	23316.80	3.7870	3.7870	-0.9303	25.07	0.09	-0.050			
0.3653	23376.33	3.7860	3.7858	-0.9225	25.08	0.10	-0.050			
0.3662	23435.12	3.7850	3.7852	-0.9158	25.10	0.12	-0.050			
0.3671	23493.74	3.7840	3.7839	-0.9111	25.10	0.12	-0.050			
0.3680	23552.28	3.7830	3.7830	-0.9050	25.11	0.13	-0.050			
0.3689	23609.62	3.7820	3.7821	-0.9000	25.11	0.13	-0.050			
0.3698	23666.57	3.7810	3.7810	-0.8974	25.11	0.13	-0.050			
0.3707	23723.14	3.7800	3.7802	-0.8920	25.11	0.13	-0.050			
0.3716	23780.47	3.7790	3.7791	-0.8874	25.11	0.13	-0.050			
0.3725	23836.87	3.7780	3.7782	-0.8816	25.12	0.14	-0.050			
0.3733	23894.39	3.7770	3.7770	-0.8745	25.13	0.15	-0.050			
0.3742	23949.97	3.7760	3.7760	-0.8668	25.13	0.15	-0.050			
0.3751	24005.43	3.7750	3.7749	-0.8594	25.14	0.16	-0.050			
0.3759	24060.37	3.7740	3.7739	-0.8528	25.15	0.17	-0.050			
0.3768	24115.01	3.7730	3.7728	-0.8463	25.15	0.17	-0.050			
0.3776	24168.78	3.7720	3.7721	-0.8393	25.15	0.17	-0.050			
0.3785	24222.27	3.7710	3.7712	-0.8349	25.15	0.17	-0.050			
0.3793	24274.92	3.7700	3.7702	-0.8297	25.17	0.19	-0.050			
0.3801	24328.04	3.7690	3.7692	-0.8260	25.18	0.20	-0.050			
0.3809	24380.67	3.7680	3.7682	-0.8222	25.17	0.19	-0.050			
0.3818	24432.90	3.7670	3.7670	-0.8171	25.18	0.20	-0.050			
0.3826	24484.31	3.7660	3.7659	-0.8135	25.17	0.19	-0.050			
0.3834	24535.76	3.7650	3.7647	-0.8093	25.15	0.17	-0.050			
0.3842	24586.51	3.7640	3.7640	-0.8057	25.16	0.18	-0.050			
0.3849	24636.66	3.7630	3.7631	-0.8030	25.17	0.19	-0.050			
0.3857	24686.86	3.7620	3.7618	-0.8013	25.17	0.19	-0.050			
0.3865	24737.05	3.7610	3.7611	-0.7998	25.18	0.20	-0.050			
0.3873	24788.40	3.7600	3.7600	-0.8006	25.18	0.20	-0.050			
0.3881	24839.91	3.7590	3.7591	-0.8020	25.18	0.20	-0.050			
0.3889	24891.66	3.7580	3.7582	-0.8036	25.18	0.20	-0.050			
0.3897	24943.78	3.7570	3.7569	-0.8062	25.18	0.20	-0.050			
0.3906	24995.52	3.7560	3.7561	-0.8088	25.18	0.20	-0.050			
0.3914	25046.66	3.7550	3.7549	-0.8085	25.18	0.20	-0.050			
0.3922	25099.39	3.7540	3.7540	-0.8063	25.19	0.21	-0.050			
0.3930	25150.54	3.7530	3.7530	-0.8077	25.19	0.21	-0.050			
0.3938	25202.27	3.7520	3.7520	-0.8088	25.19	0.21	-0.050			
0.3946	25253.39	3.7510	3.7509	-0.8101	25.19	0.21	-0.050			
0.3954	25304.37	3.7500	3.7499	-0.8145	25.19	0.21	-0.050			
0.3962	25356.13	3.7490	3.7490	-0.8176	25.20	0.22	-0.050			
0.3970	25408.26	3.7480	3.7479	-0.8216	25.20	0.22	-0.050			
0.3978	25460.52	3.7470	3.7470	-0.8263	25.21	0.23	-0.050			
0.3986	25513.15	3.7460	3.7462	-0.8298	25.21	0.23	-0.050			
0.3995	25565.42	3.7450	3.7451	-0.8381	25.21	0.23	-0.050			
0.4003	25618.74	3.7440	3.7440	-0.8438	25.21	0.23	-0.050	0.475	0.737	
0.4011	25671.89	3.7430	3.7431	-0.8504	25.21	0.23	-0.050			
0.4020	25726.23	3.7420	3.7418	-0.8578	25.22	0.24	-0.050			
0.4028	25781.36	3.7410	3.7410	-0.8654	25.22	0.24	-0.050			
0.4037	25837.29	3.7400	3.7400	-0.8738	25.21	0.23	-0.050			
0.4046	25893.18	3.7390	3.7390	-0.8824	25.20	0.22	-0.050			
0.4055	25949.85	3.7380	3.7380	-0.8906	25.19	0.21	-0.050			
0.4064	26008.00	3.7370	3.7368	-0.8978	25.18	0.20	-0.050			
0.4073	26066.57	3.7360	3.7359	-0.9040	25.17	0.19	-0.050			
0.4082	26125.49	3.7350	3.7350	-0.9111	25.15	0.17	-0.050			
0.4091	26184.79	3.7340	3.7340	-0.9166	25.14	0.16	-0.050			
0.4100	26243.14	3.7330	3.7330	-0.9237	25.13	0.15	-0.050			
0.4110	26301.59	3.7320	3.7320	-0.9341	25.11	0.13	-0.050			
0.4119	26360.68	3.7310	3.7312	-0.9441	25.10	0.12	-0.050			
0.4128	26420.35	3.7300	3.7301	-0.9529	25.08	0.10	-0.050			
0.4138	26481.34	3.7290	3.7291	-0.9636	25.06	0.08	-0.050			
0.4147	26542.15	3.7280	3.7282	-0.9755	25.05	0.07	-0.050			
0.4157	26603.92	3.7270	3.7271	-0.9885	25.04	0.06	-0.050			
0.4167	26667.23	3.7260	3.7258	-0.9995	25.03	0.05	-0.050			
0.4177	26730.83	3.7250	3.7248	-1.0096	25.01	0.03	-0.050			
0.4187	26795.96	3.7240	3.7239	-1.0238	25.01	0.03	-0.050			
0.4197	26861.55	3.7230	3.7229	-1.0369	25.00	0.02	-0.050			
0.4208	26928.17	3.7220	3.7221	-1.0516	24.98	0.00	-0.050			
0.4218	26995.81	3.7210	3.7212	-1.0671	24.98	-0.00	-0.050			
0.4229	27064.27	3.7200	3.7202	-1.0833	24.97	-0.01	-0.050			
0.4240	27134.41	3.7190	3.7189	-1.0993	24.97	-0.01	-0.050			
0.4251	27206.44	3.7180	3.7181	-1.1144	24.97	-0.01	-0.050			
0.4262	27278.38	3.7170	3.7172	-1.1310	24.97	-0.01	-0.050			
0.4274	27351.42	3.7160	3.7161	-1.1480	24.97	-0.01	-0.050			
0.4285	27423.74	3.7150	3.7149	-1.1651	24.97	-0.01	-0.050			
0.4297	27498.13	3.7140	3.7139	-1.1816	24.97	-0.01	-0.050			
0.4308	27573.47	3.7130	3.7128	-1.1961	24.97	-0.01	-0.050			
0.4320	27650.70	3.7120	3.7119	-1.2098	24.98	0.00	-0.050			
0.4333	27730.53	3.7110	3.7111	-1.2212	24.99	0.01	-0.050			
0.4345	27810.38	3.7100	3.7099	-1.2340	25.00	0.02	-0.050			
0.4358	27890.53	3.7090	3.7089	-1.2464	25.00	0.02	-0.050			
0.4370	27970.88	3.7080	3.7076	-1.2587	25.00	0.02	-0.050			
0.4383	28052.73	3.7070	3.7071	-1.2718	25.01	0.03	-0.050			
0.4396	28134.51	3.7060	3.7061	-1.2857	25.01	0.03	-0.050			
0.4409	28217.94	3.7050	3.7053	-1.2970	25.02	0.04	-0.050	-0.217	0.426	
0.4422	28301.20	3.7040	3.7042	-1.3080	25.02	0.04	-0.050			
0.4435	28384.10	3.7030	3.7032	-1.3231	25.01	0.03	-0.050			
0.4448	28468.92	3.7020	3.7019	-1.3344	25.00	0.02	-0.050			
0.4461	28553.41	3.7010	3.7010	-1.3497	25.00	0.02	-0.050			
0.4475	28639.51	3.7000	3.7001	-1.3635	25.00	0.02	-0.050			
0.4489	28727.07	3.6990	3.6989	-1.3776	25.00	0.02	-0.050			
0.4502	28814.55	3.6980	3.6978	-1.3933	25.00	0.02	-0.050			
0.4516	28902.80	3.6970	3.6970	-1.4072	25.01	0.03	-0.050			
0.4530	28992.25	3.6960	3.6962	-1.4251	25.03	0.05	-0.050			
0.4544	29082.87	3.6950	3.6948	-1.4422	25.03	0.05	-0.050			
0.4559	29175.48	3.6940	3.6939	-1.4680	25.04	0.06	-0.050			
0.4573	29269.31	3.6930	3.6931	-1.4956	25.05	0.07	-0.050			
0.4588	29366.19	3.6920	3.6919	-1.5202	25.07	0.09	-0.050			
0.4604	29464.04	3.6910	3.6909	-1.5426	25.07	0.09	-0.050			
0.4619	29564.51	3.6900	3.6899	-1.5623	25.08	0.10	-0.050			
0.4636	29667.47	3.6890	3.6890	-1.5752	25.10	0.12	-0.050			
0.4652	29770.68	3.6880	3.6877	-1.5887	25.10	0.12	-0.050			
0.4668	29873.79	3.6870	3.6871	-1.6065	25.11	0.13	-0.050			
0.4684	29977.64	3.6860	3.6859	-1.6225	25.11	0.13	-0.050			
0.4700	30082.66	3.6850	3.6850	-1.6401	25.12	0.14	-0.050			
0.4717	30188.71	3.6840	3.6841	-1.6516	25.12	0.14	-0.050			
0.4733	30294.40	3.6830	3.6832	-1.6707	25.11	0.13	-0.050			
0.4750	30401.51	3.6820	3.6822	-1.6891	25.11	0.13	-0.050			
0.4767	30507.78	3.6810	3.6812	-1.7090	25.11	0.13	-0.050			
0.4784	30617.72	3.6800	3.6800	-1.7280	25.11	0.13	-0.050			
0.4801	30727.67	3.6790	3.6790	-1.7474	25.09	0.11	-0.050			
0.4819	30839.31	3.6780	3.6780	-1.7615	25.09	0.11	-0.050			
0.4836	30949.76	3.6770	3.6771	-1.7858	25.09	0.11	-0.050			
0.4853	31062.23	3.6760	3.6759	-1.8106	25.10	0.12	-0.050			
0.4872	31178.81	3.6750	3.6750	-1.8295	25.10	0.12	-0.050			
0.4890	31296.72	3.6740	3.6737	-1.8495	25.10	0.12	-0.050			
0.4909	31417.05	3.6730	3.6730	-1.8720	25.09	0.11	-0.050			
0.4928	31538.61	3.6720	3.6719	-1.8996	25.07	0.09	-0.050			
0.4947	31662.22	3.6710	3.6710	-1.9274	25.05	0.07	-0.050			
0.4967	31786.87	3.6700	3.6702	-1.9581	25.03	0.05	-0.050			
0.4987	31913.74	3.6690	3.6691	-1.9811	25.01	0.03	-0.050			
0.5006	32040.47	3.6680	3.6681	-2.0052	25.00	0.02	-0.050	0.393	0.561	
0.5026	32168.79	3.6670	3.6670	-2.0295	25.00	0.02	-0.050			
0.5047	32298.93	3.6660	3.6662	-2.0564	25.00	0.02	-0.050			
0.5067	32430.83	3.6650	3.6649	-2.0821	24.98	0.00	-0.050			
0.5088	32563.02	3.6640	3.6640	-2.1114	24.98	0.00	-0.050			
0.5109	32695.65	3.6630	3.6630	-2.1436	25.00	0.02	-0.050			
0.5130	32830.71	3.6620	3.6621	-2.1837	25.01	0.03	-0.050			
0.5151	32969.42	3.6610	3.6608	-2.2198	25.02	0.04	-0.050			
0.5174	33113.62	3.6600	3.6602	-2.2541	25.05	0.07	-0.050			
0.5197	33262.97	3.6590	3.6590	-2.2775	25.07	0.09	-0.050	0.290	0.392	
0.5220	33411.14	3.6580	3.6579	-2.3080	25.09	0.11	-0.050			
0.5244	33560.33	3.6570	3.6570	-2.3353	25.10	0.12	-0.050			
0.5268	33712.17	3.6560	3.6560	-2.3728	25.11	0.13	-0.050			
0.5292	33867.62	3.6550	3.6550	-2.4101	25.11	0.13	-0.050			
0.5316	34021.85	3.6540	3.6540	-2.4413	25.10	0.12	-0.050			
0.5340	34178.70	3.6530	3.6530	-2.4697	25.07	0.09	-0.050			
0.5366	34339.55	3.6520	3.6522	-2.4945	25.05	0.07	-0.050			
0.5391	34499.24	3.6510	3.6512	-2.5249	25.03	0.05	-0.050			
0.5416	34660.33	3.6500	3.6499	-2.5609	25.01	0.03	-0.050			
0.5441	34825.58	3.6490	3.6490	-2.5956	25.01	0.03	-0.050			
0.5468	34993.10	3.6480	3.6479	-2.6210	25.04	0.06	-0.050			
0.5494	35160.35	3.6470	3.6470	-2.6524	25.05	0.07	-0.050			
0.5520	35330.22	3.6460	3.6460	-2.6799	25.05	0.07	-0.050			
0.5547	35501.04	3.6450	3.6450	-2.7070	25.05	0.07	-0.050			
0.5574	35673.02	3.6440	3.6441	-2.7336	25.04	0.06	-0.050			
0.5601	35848.69	3.6430	3.6428	-2.7703	25.03	0.05	-0.050			
0.5630	36029.17	3.6420	3.6421	-2.8150	25.03	0.05	-0.050			
0.5658	36212.92	3.6410	3.6409	-2.8656	25.01	0.03	-0.050			
0.5687	36396.45	3.6400	3.6403	-2.9009	25.00	0.02	-0.050			
0.5716	36580.06	3.6390	3.6390	-2.9457	24.97	-0.01	-0.050			
0.5745	36767.17	3.6380	3.6380	-2.9906	24.97	-0.01	-0.050			
0.5775	36958.02	3.6370	3.6371	-3.0438	24.97	-0.01	-0.050			
0.5805	37154.80	3.6360	3.6359	-3.0810	25.00	0.02	-0.050	0.380	0.446	
0.5837	37355.07	3.6350	3.6350	-3.1128	25.01	0.03	-0.050			
0.5869	37561.36	3.6340	3.6338	-3.1266	25.03	0.05	-0.050			
0.5900	37762.32	3.6330	3.6331	-3.1455	25.07	0.09	-0.050			
0.5933	37969.43	3.6320	3.6315	-3.1800	25.07	0.09	-0.050			
0.5965	38175.27	3.6310	3.6311	-3.2080	25.05	0.07	-0.050			
0.5998	38384.44	3.6300	3.6302	-3.2306	25.04	0.06	-0.050			
0.6030	38591.19	3.6290	3.6293	-3.2518	25.01	0.03	-0.050			
0.6062	38797.26	3.6280	3.6280	-3.2706	25.00	0.02	-0.050			
0.6095	39009.07	3.6270	3.6266	-3.2640	25.01	0.03	-0.050			
0.6128	39217.59	3.6260	3.6257	-3.2647	25.03	0.05	-0.050			
0.6160	39426.36	3.6250	3.6250	-3.2643	25.03	0.05	-0.050			
0.6193	39635.10	3.6240	3.6242	-3.2584	25.01	0.03	-0.050			
0.6226	39846.23	3.6230	3.6229	-3.2562	25.00	0.02	-0.050			
0.6259	40057.53	3.6220	3.6219	-3.2631	24.97	-0.01	-0.050			
0.6293	40272.01	3.6210	3.6213	-3.2790	24.97	-0.01	-0.050			
0.6325	40481.34	3.6200	3.6198	-3.2621	24.94	-0.04	-0.050			
0.6358	40688.65	3.6190	3.6189	-3.2600	24.93	-0.05	-0.050			
0.6389	40892.44	3.6180	3.6179	-3.2450	24.95	-0.03	-0.050	0.544	0.793	
0.6422	41101.21	3.6170	3.6169	-3.2358	24.95	-0.03	-0.050			
0.6456	41315.78	3.6160	3.6159	-3.1689	24.95	-0.03	-0.050			
0.6488	41520.62	3.6150	3.6150	-3.1390	24.95	-0.03	-0.050			
0.6519	41721.50	3.6140	3.6139	-3.1005	24.95	-0.03	-0.050			
0.6551	41923.41	3.6130	3.6128	-3.0718	24.93	-0.05	-0.050			
0.6582	42121.67	3.6120	3.6122	-3.0336	24.91	-0.07	-0.050			
0.6611	42312.82	3.6110	3.6111	-2.9855	24.89	-0.09	-0.050	0.571	0.716	
0.6641	42501.59	3.6100	3.6102	-2.9384	24.87	-0.11	-0.050			
0.6670	42687.30	3.6090	3.6087	-2.8909	24.87	-0.11	-0.050			
0.6698	42867.52	3.6080	3.6080	-2.8413	24.87	-0.11	-0.050			
0.6726	43045.96	3.6070	3.6071	-2.7868	24.88	-0.10	-0.050			
0.6753	43220.97	3.6060	3.6061	-2.7371	24.89	-0.09	-0.050			
0.6780	43393.56	3.6050	3.6051	-2.6922	24.91	-0.07	-0.050			
0.6807	43564.04	3.6040	3.6039	-2.6520	24.93	-0.05	-0.050	0.220	0.586	
0.6833	43729.74	3.6030	3.6029	-2.6088	24.95	-0.03	-0.050			
0.6859	43896.08	3.6020	3.6021	-2.5821	24.95	-0.03	-0.050			
0.6885	44062.44	3.6010	3.6009	-2.5586	24.97	-0.01	-0.050			
0.6911	44227.97	3.6000	3.6003	-2.5387	24.97	-0.01	-0.050			
0.6935	44386.78	3.5990	3.5991	-2.4935	24.97	-0.01	-0.050			
0.6960	44541.74	3.5980	3.5981	-2.4596	24.95	-0.03	-0.050			
0.6984	44697.30	3.5970	3.5969	-2.4294	24.95	-0.03	-0.050			
0.7008	44850.10	3.5960	3.5960	-2.4081	24.97	-0.01	-0.050			
0.7032	45002.28	3.5950	3.5949	-2.3863	24.98	-0.00	-0.050			
0.7055	45153.40	3.5940	3.5940	-2.3556	24.99	0.01	-0.050			
0.7079	45304.02	3.5930	3.5930	-2.3222	25.00	0.02	-0.050			
0.7102	45451.77	3.5920	3.5920	-2.2914	25.00	0.02	-0.050			
0.7125	45599.12	3.5910	3.5912	-2.2623	25.01	0.03	-0.050			
0.7147	45743.60	3.5900	3.5899	-2.2344	25.05	0.07	-0.050			
0.7170	45888.27	3.5890	3.5888	-2.2110	25.06	0.08	-0.050			
0.7192	46030.53	3.5880	3.5879	-2.1831	25.07	0.09	-0.050			
0.7214	46170.41	3.5870	3.5867	-2.1514	25.07	0.09	-0.050			
0.7236	46307.50	3.5860	3.5862	-2.1185	25.07	0.09	-0.050			
0.7257	46443.18	3.5850	3.5852	-2.0861	25.07	0.09	-0.050			
0.7277	46574.78	3.5840	3.5839	-2.0546	25.06	0.08	-0.050			
0.7298	46704.18	3.5830	3.5829	-2.0212	25.05	0.07	-0.050			
0.7317	46831.76	3.5820	3.5820	-1.9880	25.05	0.07	-0.050			
0.7337	46955.85	3.5810	3.5812	-1.9675	25.06	0.08	-0.050			
0.7356	47078.47	3.5800	3.5802	-1.9408	25.07	0.09	-0.050			
0.7375	47200.73	3.5790	3.5792	-1.9136	25.07	0.09	-0.050			
0.7394	47319.60	3.5780	3.5781	-1.8841	25.08	0.10	-0.050			
0.7412	47438.43	3.5770	3.5771	-1.8588	25.08	0.10	-0.050	0.534	0.595	
0.7431	47556.11	3.5760	3.5761	-1.8398	25.08	0.10	-0.050			
0.7449	47673.25	3.5750	3.5750	-1.8272	25.07	0.09	-0.050			
0.7467	47790.61	3.5740	3.5742	-1.8141	25.08	0.10	-0.050			
0.7485	47905.33	3.5730	3.5730	-1.7972	25.07	0.09	-0.050			
0.7503	48017.94	3.5720	3.5718	-1.7838	25.07	0.09	-0.050			
0.7520	48129.51	3.5710	3.5712	-1.7688	25.07	0.09	-0.050			
0.7538	48240.39	3.5700	3.5702	-1.7590	25.07	0.09	-0.050			
0.7555	48352.12	3.5690	3.5691	-1.7520	25.05	0.07	-0.050			
0.7572	48463.33	3.5680	3.5680	-1.7460	25.03	0.05	-0.050			
0.7590	48574.02	3.5670	3.5667	-1.7424	25.03	0.05	-0.050			
0.7607	48684.74	3.5660	3.5658	-1.7372	25.03	0.05	-0.050	0.481	0.570	
0.7624	48795.67	3.5650	3.5651	-1.7292	25.01	0.03	-0.050			
0.7642	48905.67	3.5640	3.5640	-1.7227	25.01	0.03	-0.050			
0.7659	49015.12	3.5630	3.5629	-1.7229	25.01	0.03	-0.050			
0.7676	49123.73	3.5620	3.5621	-1.7182	25.01	0.03	-0.050			
0.7693	49233.22	3.5610	3.5611	-1.7143	25.03	0.05	-0.050			
0.7710	49345.97	3.5600	3.5601	-1.7111	25.03	0.05	-0.050			
0.7728	49459.49	3.5590	3.5589	-1.7071	25.05	0.07	-0.050			
0.7745	49570.46	3.5580	3.5580	-1.6917	25.05	0.07	-0.050			
0.7763	49681.38	3.5570	3.5570	-1.6739	25.06	0.08	-0.050			
0.7780	49789.21	3.5560	3.5560	-1.6570	25.05	0.07	-0.050			
0.7796	49896.93	3.5550	3.5549	-1.6347	25.05	0.07	-0.050			
0.7813	50002.36	3.5540	3.5540	-1.6140	25.05	0.07	-0.050	0.309	0.655	
0.7829	50106.40	3.5530	3.5531	-1.5903	25.05	0.07	-0.050			
0.7845	50207.52	3.5520	3.5520	-1.5643	25.04	0.06	-0.050			
0.7861	50307.89	3.5510	3.5512	-1.5394	25.03	0.05	-0.050			
0.7876	50406.54	3.5500	3.5498	-1.5109	25.01	0.03	-0.050			
0.7891	50503.64	3.5490	3.5490	-1.4793	25.01	0.03	-0.050			
0.7906	50597.09	3.5480	3.5479	-1.4474	25.00	0.02	-0.050			
0.7920	50688.91	3.5470	3.5467	-1.4174	25.00	0.02	-0.050			
0.7934	50778.44	3.5460	3.5460	-1.3879	25.00	0.02	-0.050			
0.7948	50865.65	3.5450	3.5448	-1.3564	25.01	0.03	-0.050			
0.7961	50949.64	3.5440	3.5442	-1.3224	25.01	0.03	-0.050			
0.7974	51031.54	3.5430	3.5431	-1.2916	25.03	0.05	-0.050			
0.7986	51113.32	3.5420	3.5422	-1.2675	25.04	0.06	-0.050			
0.7999	51193.35	3.5410	3.5412	-1.2452	25.05	0.07	-0.050			
0.8011	51273.28	3.5400	3.5402	-1.2242	25.05	0.07	-0.050	0.405	0.539	
0.8023	51350.24	3.5390	3.5390	-1.1989	25.05	0.07	-0.050			
0.8035	51425.50	3.5380	3.5380	-1.1753	25.07	0.09	-0.050			
0.8046	51496.81	3.5370	3.5370	-1.1602	25.06	0.08	-0.050			
0.8058	51568.10	3.5360	3.5360	-1.1411	25.05	0.07	-0.050			
0.8069	51639.00	3.5350	3.5351	-1.1288	25.06	0.08	-0.050			
0.8079	51708.05	3.5340	3.5340	-1.1099	25.06	0.08	-0.050			
0.8090	51778.87	3.5330	3.5331	-1.0975	25.05	0.07	-0.050			
0.8101	51847.65	3.5320	3.5318	-1.0852	25.05	0.07	-0.050			
0.8112	51917.05	3.5310	3.5311	-1.0736	25.04	0.06	-0.050			
0.8123	51985.07	3.5300	3.5300	-1.0661	25.04	0.06	-0.050			
0.8133	52052.91	3.5290	3.5286	-1.0586	25.03	0.05	-0.050			
0.8144	52118.80	3.5280	3.5280	-1.0519	25.03	0.05	-0.050			
0.8154	52185.08	3.5270	3.5272	-1.0465	25.03	0.05	-0.050			
0.8164	52251.49	3.5260	3.5261	-1.0424	25.03	0.05	-0.050			
0.8175	52318.05	3.5250	3.5253	-1.0396	25.02	0.04	-0.050			
0.8185	52384.38	3.5240	3.5240	-1.0367	25.01	0.03	-0.050			
0.8195	52449.91	3.5230	3.5228	-1.0320	25.01	0.03	-0.050			
0.8206	52515.58	3.5220	3.5220	-1.0281	25.01	0.03	-0.050	0.464	0.649	
0.8216	52581.49	3.5210	3.5207	-1.0230	25.01	0.03	-0.050			
0.8226	52647.80	3.5200	3.5200	-1.0179	25.02	0.04	-0.050			
0.8236	52713.56	3.5190	3.5191	-1.0109	25.03	0.05	-0.050			
0.8247	52778.03	3.5180	3.5180	-1.0022	25.04	0.06	-0.050			
0.8257	52841.86	3.5170	3.5170	-0.9926	25.05	0.07	-0.050			
0.8267	52906.34	3.5160	3.5161	-0.9858	25.06	0.08	-0.050			
0.8277	52971.17	3.5150	3.5148	-0.9780	25.07	0.09	-0.050			
0.8287	53034.71	3.5140	3.5142	-0.9704	25.07	0.09	-0.050			
0.8297	53097.95	3.5130	3.5130	-0.9635	25.07	0.09	-0.050			
0.8306	53159.39	3.5120	3.5121	-0.9509	25.08	0.10	-0.050			
0.8316	53220.23	3.5110	3.5110	-0.9393	25.09	0.11	-0.050			
0.8325	53278.76	3.5100	3.5101	-0.9265	25.09	0.11	-0.050			
0.8334	53337.19	3.5090	3.5089	-0.9144	25.10	0.12	-0.050			
0.8343	53393.79	3.5080	3.5082	-0.9058	25.10	0.12	-0.050			
0.8352	53450.45	3.5070	3.5069	-0.8970	25.10	0.12	-0.050			
0.8360	53505.32	3.5060	3.5061	-0.8936	25.10	0.12	-0.050			
0.8369	53560.57	3.5050	3.5049	-0.8890	25.10	0.12	-0.050			
0.8377	53613.88	3.5040	3.5041	-0.8899	25.10	0.12	-0.050			
0.8386	53667.80	3.5030	3.5032	-0.8982	25.10	0.12	-0.050			
0.8394	53720.82	3.5020	3.5021	-0.9085	25.11	0.13	-0.050			
0.8403	53776.10	3.5010	3.5010	-0.9254	25.11	0.13	-0.050	0.424	0.646	
0.8411	53831.26	3.5000	3.5003	-0.9424	25.11	0.13	-0.050			
0.8420	53890.81	3.4990	3.4987	-0.9624	25.10	0.12	-0.050			
0.8429	53948.31	3.4980	3.4982	-0.9876	25.10	0.12	-0.050			
0.8439	54007.40	3.4970	3.4965	-1.0283	25.10	0.12	-0.050			
0.8448	54069.50	3.4960	3.4962	-1.0733	25.10	0.12	-0.050			
0.8458	54132.10	3.4950	3.4950	-1.1207	25.10	0.12	-0.050			
0.8469	54198.57	3.4940	3.4940	-1.1844	25.10	0.12	-0.050			
0.8480	54268.91	3.4930	3.4932	-1.2464	25.08	0.10	-0.050			
0.8492	54347.07	3.4920	3.4923	-1.3214	25.09	0.11	-0.050			
0.8505	54430.48	3.4910	3.4912	-1.4023	25.07	0.09	-0.050			
0.8518	54518.23	3.4900	3.4902	-1.4833	25.07	0.09	-0.050			
0.8534	54614.65	3.4890	3.4886	-1.5738	25.07	0.09	-0.050			
0.8549	54716.69	3.4880	3.4879	-1.6602	25.06	0.08	-0.050			
0.8567	54825.75	3.4870	3.4870	-1.7572	25.07	0.09	-0.050			
0.8585	54945.22	3.4860	3.4859	-1.8424	25.08	0.10	-0.050			
0.8605	55073.30	3.4850	3.4850	-1.9191	25.10	0.12	-0.050			
0.8626	55204.78	3.4840	3.4838	-1.9926	25.11	0.13	-0.050			
0.8647	55341.85	3.4830	3.4829	-2.0590	25.10	0.12	-0.050			
0.8669	55482.48	3.4820	3.4819	-2.1229	25.08	0.10	-0.050			
0.8692	55627.03	3.4810	3.4811	-2.1821	25.07	0.09	-0.050			
0.8715	55777.10	3.4800	3.4800	-2.2214	25.05	0.07	-0.050			
0.8739	55927.09	3.4790	3.4789	-2.2416	25.03	0.05	-0.050			
0.8762	56079.80	3.4780	3.4781	-2.2525	25.01	0.03	-0.050			
0.8786	56230.66	3.4770	3.4773	-2.2552	25.01	0.03	-0.050			
0.8809	56380.56	3.4760	3.4757	-2.2545	25.00	0.02	-0.050			
0.8832	56527.70	3.4750	3.4749	-2.2436	24.99	0.01	-0.050			
0.8855	56674.23	3.4740	3.4742	-2.2272	25.00	0.02	-0.050			
0.8878	56818.94	3.4730	3.4731	-2.2012	25.01	0.03	-0.050			
0.8900	56961.16	3.4720	3.4721	-2.1743	25.01	0.03	-0.050			
0.8922	57101.02	3.4710	3.4710	-2.1390	25.03	0.05	-0.050			
0.8944	57238.64	3.4700	3.4701	-2.0978	25.04	0.06	-0.050			
0.8965	57373.76	3.4690	3.4687	-2.0509	25.05	0.07	-0.050			
0.8985	57504.79	3.4680	3.4680	-1.9989	25.07	0.09	-0.050			
0.9006	57636.30	3.4670	3.4671	-1.9532	25.07	0.09	-0.050	0.185	0.532	
0.9026	57765.01	3.4660	3.4658	-1.9026	25.07	0.09	-0.050			
0.9045	57886.06	3.4650	3.4650	-1.8401	25.07	0.09	-0.050			
0.9063	58002.78	3.4640	3.4642	-1.7765	25.05	0.07	-0.050			
0.9081	58115.90	3.4630	3.4631	-1.7133	25.04	0.06	-0.050			
0.9098	58225.53	3.4620	3.4623	-1.6515	25.03	0.05	-0.050			
0.9114	58331.46	3.4610	3.4611	-1.5895	25.02	0.04	-0.050			
0.9130	58433.94	3.4600	3.4602	-1.5258	25.00	0.02	-0.050			
0.9145	58529.28	3.4590	3.4588	-1.4620	24.98	0.00	-0.050			
0.9159	58616.45	3.4580	3.4579	-1.3956	24.97	-0.01	-0.050			
0.9172	58699.95	3.4570	3.4569	-1.3282	24.95	-0.03	-0.050			
0.9185	58781.45	3.4560	3.4560	-1.2683	24.95	-0.03	-0.050			
0.9196	58857.44	3.4550	3.4550	-1.2060	24.95	-0.03	-0.050			
0.9208	58931.48	3.4540	3.4539	-1.1506	24.96	-0.02	-0.050	0.457	0.613	
0.9219	59000.09	3.4530	3.4530	-1.0976	24.96	-0.02	-0.050			
0.9229	59067.17	3.4520	3.4521	-1.0460	24.96	-0.02	-0.050			
0.9239	59132.37	3.4510	3.4509	-0.9994	24.97	-0.01	-0.050			
0.9249	59193.88	3.4500	3.4501	-0.9542	24.98	0.00	-0.050			
0.9258	59253.36	3.4490	3.4490	-0.9127	25.00	0.02	-0.050			
0.9267	59308.87	3.4480	3.4482	-0.8715	25.00	0.02	-0.050			
0.9275	59361.55	3.4470	3.4471	-0.8328	25.01	0.03	-0.050			
0.9283	59411.94	3.4460	3.4460	-0.7955	25.01	0.03	-0.050			
0.9291	59459.72	3.4450	3.4449	-0.7610	25.01	0.03	-0.050			
0.9298	59505.12	3.4440	3.4440	-0.7283	25.03	0.05	-0.050			
0.9305	59549.84	3.4430	3.4432	-0.6948	25.03	0.05	-0.050			
0.9311	59591.95	3.4420	3.4421	-0.6675	25.03	0.05	-0.050			
0.9317	59630.94	3.4410	3.4411	-0.6403	25.04	0.06	-0.050			
0.9323	59669.13	3.4400	3.4400	-0.6166	25.05	0.07	-0.050			
0.9329	59705.74	3.4390	3.4390	-0.5901	25.05	0.07	-0.050			
0.9334	59740.33	3.4380	3.4381	-0.5693	25.05	0.07	-0.050			
0.9340	59774.98	3.4370	3.4371	-0.5534	25.05	0.07	-0.050			
0.9345	59809.56	3.4360	3.4360	-0.5372	25.05	0.07	-0.050			
0.9350	59842.94	3.4350	3.4348	-0.5236	25.05	0.07	-0.050			
0.9356	59875.35	3.4340	3.4341	-0.5110	25.07	0.09	-0.050			
0.9360	59905.91	3.4330	3.4331	-0.4933	25.07	0.09	-0.050			
0.9365	59936.89	3.4320	3.4318	-0.4825	25.07	0.09	-0.050			
0.9370	59967.42	3.4310	3.4308	-0.4710	25.07	0.09	-0.050			
0.9375	59996.92	3.4300	3.4300	-0.4592	25.07	0.09	-0.050			
0.9379	60025.19	3.4290	3.4290	-0.4471	25.07	0.09	-0.050			
0.9383	60053.03	3.4280	3.4279	-0.4359	25.07	0.09	-0.050			
0.9388	60080.18	3.4270	3.4270	-0.4254	25.07	0.09	-0.050			
0.9392	60107.21	3.4260	3.4262	-0.4161	25.07	0.09	-0.050			
0.9396	60133.92	3.4250	3.4250	-0.4078	25.08	0.10	-0.050			
0.9400	60159.50	3.4240	3.4240	-0.3973	25.09	0.11	-0.050			
0.9404	60184.11	3.4230	3.4231	-0.3896	25.10	0.12	-0.050			
0.9408	60208.89	3.4220	3.4221	-0.3808	25.10	0.12	-0.050	0.380	0.755	
0.9411	60232.06	3.4210	3.4211	-0.3749	25.10	0.12	-0.050			
0.9415	60255.23	3.4200	3.4200	-0.3658	25.10	0.12	-0.050			
0.9418	60277.92	3.4190	3.4190	-0.3605	25.10	0.12	-0.050			
0.9422	60300.28	3.4180	3.4179	-0.3531	25.10	0.12	-0.050			
0.9425	60321.49	3.4170	3.4171	-0.3470	25.10	0.12	-0.050			
0.9429	60343.55	3.4160	3.4162	-0.3424	25.10	0.12	-0.050			
0.9432	60364.42	3.4150	3.4147	-0.3374	25.10	0.12	-0.050			
0.9435	60385.53	3.4140	3.4139	-0.3330	25.10	0.12	-0.050			
0.9439	60406.84	3.4130	3.4127	-0.3294	25.10	0.12	-0.050			
0.9442	60427.33	3.4120	3.4120	-0.3252	25.10	0.12	-0.050			
0.9445	60448.09	3.4110	3.4110	-0.3221	25.10	0.12	-0.050			
0.9448	60468.48	3.4100	3.4101	-0.3189	25.10	0.12	-0.050			
0.9451	60489.17	3.4090	3.4091	-0.3162	25.10	0.12	-0.050			
0.9455	60509.30	3.4080	3.4081	-0.3129	25.10	0.12	-0.050			
0.9458	60529.31	3.4070	3.4069	-0.3098	25.10	0.12	-0.050			
0.9461	60549.03	3.4060	3.4062	-0.3065	25.10	0.12	-0.050			
0.9464	60568.83	3.4050	3.4050	-0.3036	25.11	0.13	-0.050			
0.9467	60588.14	3.4040	3.4041	-0.2999	25.11	0.13	-0.050			
0.9470	60607.48	3.4030	3.4029	-0.2967	25.11	0.13	-0.050			
0.9473	60626.17	3.4020	3.4020	-0.2934	25.11	0.13	-0.050			
0.9476	60644.50	3.4010	3.4009	-0.2891	25.11	0.13	-0.050			
0.9479	60662.71	3.4000	3.4000	-0.2864	25.12	0.14	-0.050			
0.9481	60680.61	3.3990	3.3990	-0.2826	25.12	0.14	-0.050			
0.9484	60698.60	3.3980	3.3980	-0.2797	25.12	0.14	-0.050			
0.9487	60716.33	3.3970	3.3971	-0.2778	25.13	0.15	-0.050			
0.9490	60734.03	3.3960	3.3959	-0.2751	25.13	0.15	-0.050			
0.9492	60751.23	3.3950	3.3951	-0.2721	25.13	0.15	-0.050			
0.9495	60768.57	3.3940	3.3940	-0.2697	25.13	0.15	-0.050			
0.9498	60785.62	3.3930	3.3930	-0.2671	25.13	0.15	-0.050			
0.9500	60802.66	3.3920	3.3919	-0.2647	25.13	0.15	-0.050			
0.9503	60819.51	3.3910	3.3910	-0.2624	25.14	0.16	-0.050			
0.9506	60836.17	3.3900	3.3901	-0.2603	25.14	0.16	-0.050			
0.9508	60852.57	3.3890	3.3888	-0.2576	25.14	0.16	-0.050			
0.9511	60868.99	3.3880	3.3881	-0.2556	25.14	0.16	-0.050			
0.9513	60885.16	3.3870	3.3869	-0.2539	25.15	0.17	-0.050			
0.9516	60901.35	3.3860	3.3861	-0.2520	25.15	0.17	-0.050			
0.9518	60917.42	3.3850	3.3851	-0.2501	25.15	0.17	-0.050			
0.9521	60933.18	3.3840	3.3840	-0.2486	25.15	0.17	-0.050			
0.9523	60949.04	3.3830	3.3831	-0.2469	25.15	0.17	-0.050			
0.9526	60964.70	3.3820	3.3819	-0.2456	25.15	0.17	-0.050			
0.9528	60980.36	3.3810	3.3809	-0.2440	25.15	0.17	-0.050			
0.9531	60995.78	3.3800	3.3800	-0.2421	25.15	0.17	-0.050			
0.9533	61011.09	3.3790	3.3790	-0.2411	25.15	0.17	-0.050			
0.9535	61026.48	3.3780	3.3780	-0.2398	25.15	0.17	-0.050			
0.9538	61041.53	3.3770	3.3769	-0.2381	25.15	0.17	-0.050			
0.9540	61056.69	3.3760	3.3760	-0.2372	25.15	0.17	-0.050			
0.9542	61071.63	3.3750	3.3751	-0.2358	25.15	0.17	-0.050			
0.9545	61086.93	3.3740	3.3739	-0.2343	25.16	0.18	-0.050			
0.9547	61101.90	3.3730	3.3732	-0.2333	25.17	0.19	-0.050			
0.9550	61116.91	3.3720	3.3720	-0.2324	25.17	0.19	-0.050			
0.9552	61131.82	3.3710	3.3707	-0.2310	25.17	0.19	-0.050			
0.9554	61146.71	3.3700	3.3700	-0.2301	25.18	0.20	-0.050			
0.9556	61161.39	3.3690	3.3690	-0.2287	25.18	0.20	-0.050			
0.9559	61176.15	3.3680	3.3680	-0.2268	25.18	0.20	-0.050			
0.9561	61190.75	3.3670	3.3671	-0.2256	25.18	0.20	-0.050			
0.9563	61205.13	3.3660	3.3659	-0.2239	25.18	0.20	-0.050			
0.9566	61219.47	3.3650	3.3651	-0.2220	25.18	0.20	-0.050			
0.9568	61233.72	3.3640	3.3640	-0.2205	25.18	0.20	-0.050			
0.9570	61247.77	3.3630	3.3630	-0.2187	25.19	0.21	-0.050			
0.9572	61261.71	3.3620	3.3620	-0.2173	25.19	0.21	-0.050			
0.9574	61275.56	3.3610	3.3610	-0.2155	25.19	0.21	-0.050			
0.9576	61289.30	3.3600	3.3600	-0.2137	25.19	0.21	-0.050			
0.9578	61302.39	3.3590	3.3591	-0.2129	25.19	0.21	-0.050			
0.9581	61315.97	3.3580	3.3582	-0.2116	25.19	0.21	-0.050			
0.9583	61329.47	3.3570	3.3569	-0.2103	25.19	0.21	-0.050			
0.9585	61342.60	3.3560	3.3560	-0.2085	25.19	0.21	-0.050			
0.9587	61355.91	3.3550	3.3551	-0.2074	25.19	0.21	-0.050			
0.9589	61368.72	3.3540	3.3540	-0.2062	25.19	0.21	-0.050			
0.9591	61381.90	3.3530	3.3531	-0.2056	25.19	0.21	-0.050			
0.9593	61395.06	3.3520	3.3520	-0.2049	25.19	0.21	-0.050			
0.9595	61408.01	3.3510	3.3508	-0.2040	25.20	0.22	-0.050			
0.9597	61421.04	3.3500	3.3500	-0.2034	25.20	0.22	-0.050			
0.9599	61434.18	3.3490	3.3491	-0.2025	25.20	0.22	-0.050			
0.9601	61446.96	3.3480	3.3478	-0.2015	25.20	0.22	-0.050			
0.9603	61459.85	3.3470	3.3467	-0.2010	25.19	0.21	-0.050			
0.9605	61472.93	3.3460	3.3461	-0.1998	25.19	0.21	-0.050			
0.9607	61485.91	3.3450	3.3447	-0.1997	25.19	0.21	-0.050	0.567	0.726	
0.9609	61498.66	3.3440	3.3439	-0.1987	25.19	0.21	-0.050			
0.9611	61511.30	3.3430	3.3430	-0.1979	25.19	0.21	-0.050			
0.9613	61524.10	3.3420	3.3421	-0.1975	25.19	0.21	-0.050			
0.9615	61536.71	3.3410	3.3410	-0.1965	25.19	0.21	-0.050			
0.9617	61549.25	3.3400	3.3402	-0.1955	25.19	0.21	-0.050			
0.9619	61561.79	3.3390	3.3390	-0.1948	25.20	0.22	-0.050			
0.9621	61574.22	3.3380	3.3380	-0.1937	25.20	0.22	-0.050			
0.9623	61586.57	3.3370	3.3371	-0.1926	25.21	0.23	-0.050			
0.9625	61598.80	3.3360	3.3360	-0.1917	25.21	0.23	-0.050			
0.9627	61611.04	3.3350	3.3349	-0.1907	25.21	0.23	-0.050			
0.9629	61622.97	3.3340	3.3340	-0.1894	25.21	0.23	-0.050			
0.9630	61634.98	3.3330	3.3331	-0.1888	25.21	0.23	-0.050			
0.9632	61646.96	3.3320	3.3318	-0.1878	25.21	0.23	-0.050			
0.9634	61658.96	3.3310	3.3311	-0.1871	25.21	0.23	-0.050			
0.9636	61670.91	3.3300	3.3301	-0.1864	25.21	0.23	-0.050			
0.9638	61682.82	3.3290	3.3290	-0.1856	25.21	0.23	-0.050			
0.9640	61694.67	3.3280	3.3279	-0.1849	25.21	0.23	-0.050			
0.9642	61706.48	3.3270	3.3270	-0.1841	25.21	0.23	-0.050			
0.9643	61718.38	3.3260	3.3260	-0.1832	25.22	0.24	-0.050			
0.9645	61730.07	3.3250	3.3250	-0.1823	25.22	0.24	-0.050			
0.9647	61741.72	3.3240	3.3240	-0.1815	25.23	0.25	-0.050			
0.9649	61753.41	3.3230	3.3230	-0.1808	25.23	0.25	-0.050			
0.9651	61765.05	3.3220	3.3218	-0.1797	25.23	0.25	-0.050			
0.9653	61776.51	3.3210	3.3209	-0.1786	25.23	0.25	-0.050			
0.9654	61787.91	3.3200	3.3201	-0.1776	25.23	0.25	-0.050			
0.9656	61799.24	3.3190	3.3191	-0.1766	25.23	0.25	-0.050			
0.9658	61810.36	3.3180	3.3180	-0.1760	25.23	0.25	-0.050			
0.9660	61821.59	3.3170	3.3171	-0.1751	25.23	0.25	-0.050			
0.9661	61832.85	3.3160	3.3162	-0.1744	25.23	0.25	-0.050			
0.9663	61843.76	3.3150	3.3149	-0.1739	25.23	0.25	-0.050			
0.9665	61854.86	3.3140	3.3140	-0.1732	25.23	0.25	-0.050			
0.9667	61865.81	3.3130	3.3131	-0.1722	25.23	0.25	-0.050			
0.9668	61876.81	3.3120	3.3120	-0.1715	25.23	0.25	-0.050			
0.9670	61887.63	3.3110	3.3109	-0.1713	25.22	0.24	-0.050			
0.9672	61898.58	3.3100	3.3099	-0.1707	25.22	0.24	-0.050			
0.9673	61909.21	3.3090	3.3092	-0.1697	25.22	0.24	-0.050			
0.9675	61920.07	3.3080	3.3079	-0.1694	25.22	0.24	-0.050			
0.9677	61930.88	3.3070	3.3068	-0.1692	25.22	0.24	-0.050			
0.9678	61941.55	3.3060	3.3060	-0.1685	25.22	0.24	-0.050			
0.9680	61952.33	3.3050	3.3051	-0.1683	25.22	0.24	-0.050			
0.9682	61963.10	3.3040	3.3040	-0.1682	25.22	0.24	-0.050			
0.9683	61973.95	3.3030	3.3030	-0.1677	25.22	0.24	-0.050			
0.9685	61984.73	3.3020	3.3021	-0.1676	25.22	0.24	-0.050			
0.9687	61995.44	3.3010	3.3011	-0.1673	25.22	0.24	-0.050			
0.9688	62006.14	3.3000	3.2998	-0.1670	25.22	0.24	-0.050			
0.9690	62016.91	3.2990	3.2990	-0.1663	25.22	0.24	-0.050			
0.9692	62027.73	3.2980	3.2980	-0.1662	25.22	0.24	-0.050			
0.9693	62038.36	3.2970	3.2970	-0.1657	25.22	0.24	-0.050			
0.9695	62049.11	3.2960	3.2959	-0.1647	25.21	0.23	-0.050			
0.9697	62059.70	3.2950	3.2950	-0.1642	25.21	0.23	-0.050			
0.9698	62070.19	3.2940	3.2941	-0.1634	25.21	0.23	-0.050			
0.9700	62080.62	3.2930	3.2930	-0.1627	25.21	0.23	-0.050			
0.9702	62091.01	3.2920	3.2920	-0.1619	25.21	0.23	-0.050			
0.9703	62101.48	3.2910	3.2910	-0.1613	25.21	0.23	-0.050			
0.9705	62111.78	3.2900	3.2902	-0.1604	25.21	0.23	-0.050			
0.9707	62122.02	3.2890	3.2889	-0.1595	25.21	0.23	-0.050			
0.9708	62132.20	3.2880	3.2879	-0.1586	25.21	0.23	-0.050			
0.9710	62142.23	3.2870	3.2871	-0.1583	25.21	0.23	-0.050			
0.9711	62152.34	3.2860	3.2861	-0.1575	25.20	0.22	-0.050			
0.9713	62162.39	3.2850	3.2850	-0.1567	25.20	0.22	-0.050			
0.9714	62172.40	3.2840	3.2840	-0.1559	25.20	0.22	-0.050			
0.9716	62182.13	3.2830	3.2830	-0.1553	25.20	0.22	-0.050			
0.9718	62192.05	3.2820	3.2819	-0.1547	25.20	0.22	-0.050			
0.9719	62201.94	3.2810	3.2810	-0.1541	25.20	0.22	-0.050			
0.9721	62211.78	3.2800	3.2800	-0.1535	25.19	0.21	-0.050			
0.9722	62221.56	3.2790	3.2790	-0.1525	25.19	0.21	-0.050			
0.9724	62231.30	3.2780	3.2780	-0.1519	25.19	0.21	-0.050			
0.9725	62241.00	3.2770	3.2769	-0.1513	25.19	0.21	-0.050			
0.9727	62250.62	3.2760	3.2759	-0.1506	25.19	0.21	-0.050			
0.9728	62260.34	3.2750	3.2751	-0.1499	25.18	0.20	-0.050			
0.9730	62269.91	3.2740	3.2740	-0.1492	25.18	0.20	-0.050			
0.9731	62279.44	3.2730	3.2730	-0.1486	25.18	0.20	-0.050			
0.9733	62288.93	3.2720	3.2720	-0.1479	25.18	0.20	-0.050			
0.9734	62298.59	3.2710	3.2711	-0.1475	25.18	0.20	-0.050			
0.9736	62307.81	3.2700	3.2700	-0.1473	25.18	0.20	-0.050			
0.9737	62317.21	3.2690	3.2690	-0.1467	25.18	0.20	-0.050			
0.9739	62326.58	3.2680	3.2680	-0.1461	25.18	0.20	-0.050			
0.9740	62335.89	3.2670	3.2669	-0.1455	25.18	0.20	-0.050			
0.9741	62345.20	3.2660	3.2659	-0.1448	25.18	0.20	-0.050			
0.9743	62354.45	3.2650	3.2650	-0.1442	25.18	0.20	-0.050			
0.9744	62363.66	3.2640	3.2641	-0.1436	25.18	0.20	-0.050			
0.9746	62372.69	3.2630	3.2630	-0.1428	25.17	0.19	-0.050			
0.9747	62381.81	3.2620	3.2619	-0.1423	25.17	0.19	-0.050			
0.9749	62390.78	3.2610	3.2611	-0.1422	25.17	0.19	-0.050			
0.9750	62399.87	3.2600	3.2600	-0.1418	25.17	0.19	-0.050			
0.9751	62408.77	3.2590	3.2589	-0.1412	25.16	0.18	-0.050			
0.9753	62417.79	3.2580	3.2580	-0.1409	25.16	0.18	-0.050			
0.9754	62427.37	3.2570	3.2571	-0.1391	25.16	0.18	-0.050			
0.9756	62436.25	3.2560	3.2561	-0.1383	25.15	0.17	-0.050			
0.9757	62445.40	3.2550	3.2550	-0.1383	25.15	0.17	-0.050			
0.9758	62454.22	3.2540	3.2539	-0.1373	25.15	0.17	-0.050			
0.9760	62462.98	3.2530	3.2530	-0.1363	25.15	0.17	-0.050			
0.9761	62471.36	3.2520	3.2522	-0.1364	25.15	0.17	-0.050			
0.9763	62480.06	3.2510	3.2509	-0.1357	25.15	0.17	-0.050			
0.9764	62488.80	3.2500	3.2498	-0.1351	25.15	0.17	-0.050			
0.9765	62497.42	3.2490	3.2491	-0.1343	25.15	0.17	-0.050			
0.9767	62506.00	3.2480	3.2481	-0.1336	25.15	0.17	-0.050			
0.9768	62514.30	3.2470	3.2472	-0.1337	25.14	0.16	-0.050			
0.9769	62522.54	3.2460	3.2463	-0.1325	25.14	0.16	-0.050			
0.9770	62531.00	3.2450	3.2449	-0.1321	25.14	0.16	-0.050			
0.9772	62539.45	3.2440	3.2437	-0.1318	25.13	0.15	-0.050			
0.9773	62547.87	3.2430	3.2430	-0.1314	25.13	0.15	-0.050			
0.9774	62556.16	3.2420	3.2419	-0.1315	25.13	0.15	-0.050			
0.9776	62564.30	3.2410	3.2406	-0.1309	25.13	0.15	-0.050			
0.9777	62572.67	3.2400	3.2400	-0.1308	25.13	0.15	-0.050			
0.9778	62581.04	3.2390	3.2391	-0.1307	25.13	0.15	-0.050			
0.9780	62589.60	3.2380	3.2377	-0.1301	25.13	0.15	-0.050			
0.9781	62597.71	3.2370	3.2370	-0.1293	25.13	0.15	-0.050			
0.9782	62605.98	3.2360	3.2360	-0.1292	25.13	0.15	-0.050			
0.9783	62614.25	3.2350	3.2350	-0.1292	25.13	0.15	-0.050			
0.9785	62622.51	3.2340	3.2341	-0.1291	25.13	0.15	-0.050			
0.9786	62630.95	3.2330	3.2333	-0.1284	25.13	0.15	-0.050			
0.9787	62639.69	3.2320	3.2319	-0.1296	25.12	0.14	-0.050			
0.9789	62647.96	3.2310	3.2308	-0.1290	25.12	0.14	-0.050			
0.9790	62656.20	3.2300	3.2301	-0.1284	25.12	0.14	-0.050			
0.9791	62664.40	3.2290	3.2289	-0.1278	25.12	0.14	-0.050			
0.9793	62672.57	3.2280	3.2277	-0.1273	25.12	0.14	-0.050			
0.9794	62680.37	3.2270	3.2271	-0.1274	25.12	0.14	-0.050			
0.9795	62689.08	3.2260	3.2259	-0.1266	25.11	0.13	-0.050			
0.9796	62697.16	3.2250	3.2246	-0.1260	25.11	0.13	-0.050			
0.9798	62705.21	3.2240	3.2240	-0.1255	25.11	0.13	-0.050			
0.9799	62713.22	3.2230	3.2233	-0.1249	25.11	0.13	-0.050			
0.9800	62721.34	3.2220	3.2217	-0.1246	25.11	0.13	-0.050			
0.9801	62729.29	3.2210	3.2208	-0.1239	25.11	0.13	-0.050			
0.9803	62737.20	3.2200	3.2200	-0.1233	25.11	0.13	-0.050			
0.9804	62744.77	3.2190	3.2187	-0.1238	25.10	0.12	-0.050			
0.9805	62752.60	3.2180	3.2177	-0.1231	25.10	0.12	-0.050			
0.9806	62760.47	3.2170	3.2169	-0.1228	25.10	0.12	-0.050			
0.9808	62768.32	3.2160	3.2161	-0.1225	25.10	0.12	-0.050			
0.9809	62776.15	3.2150	3.2150	-0.1222	25.10	0.12	-0.050			
0.9810	62784.13	3.2140	3.2136	-0.1210	25.10	0.12	-0.050			
0.9811	62792.04	3.2130	3.2130	-0.1209	25.10	0.12	-0.050			
0.9812	62799.76	3.2120	3.2120	-0.1203	25.10	0.12	-0.050			
0.9814	62807.44	3.2110	3.2107	-0.1197	25.10	0.12	-0.050			
0.9815	62815.08	3.2100	3.2100	-0.1191	25.10	0.12	-0.050			
0.9816	62822.51	3.2090	3.2090	-0.1191	25.10	0.12	-0.050			
0.9817	62830.11	3.2080	3.2076	-0.1186	25.10	0.12	-0.050			
0.9818	62837.48	3.2070	3.2070	-0.1179	25.10	0.12	-0.050			
0.9820	62844.83	3.2060	3.2062	-0.1168	25.10	0.12	-0.050			
0.9821	62852.30	3.2050	3.2049	-0.1167	25.09	0.11	-0.050			
0.9822	62859.84	3.2040	3.2040	-0.1164	25.09	0.11	-0.050			
0.9823	62867.28	3.2030	3.2032	-0.1162	25.09	0.11	-0.050			
0.9824	62874.71	3.2020	3.2023	-0.1160	25.09	0.11	-0.050			
0.9825	62882.13	3.2010	3.2007	-0.1158	25.09	0.11	-0.050			
0.9826	62889.53	3.2000	3.2001	-0.1156	25.09	0.11	-0.050			
0.9828	62897.49	3.1990	3.1990	-0.1155	25.09	0.11	-0.050			
0.9829	62904.86	3.1980	3.1978	-0.1149	25.09	0.11	-0.050			
0.9830	62912.19	3.1970	3.1970	-0.1142	25.09	0.11	-0.050			
0.9831	62919.48	3.1960	3.1962	-0.1136	25.09	0.11	-0.050			
0.9832	62926.73	3.1950	3.1950	-0.1130	25.09	0.11	-0.050			
0.9833	62933.33	3.1940	3.1939	-0.1122	25.09	0.11	-0.050			
0.9834	62940.51	3.1930	3.1929	-0.1121	25.09	0.11	-0.050			
0.9836	62947.68	3.1920	3.1921	-0.1119	25.09	0.11	-0.050			
0.9837	62954.84	3.1910	3.1911	-0.1118	25.09	0.11	-0.050			
0.9838	62961.99	3.1900	3.1900	-0.1116	25.09	0.11	-0.050			
0.9839	62969.48	3.1890	3.1889	-0.1118	25.09	0.11	-0.050			
0.9840	62976.62	3.1880	3.1880	-0.1113	25.09	0.11	-0.050			
0.9841	62983.73	3.1870	3.1869	-0.1109	25.09	0.11	-0.050			
0.9842	62990.82	3.1860	3.1857	-0.1105	25.09	0.11	-0.050			
0.9843	62997.88	3.1850	3.1850	-0.1101	25.08	0.10	-0.050			
0.9844	63004.67	3.1840	3.1841	-0.1093	25.08	0.10	-0.050			
0.9846	63011.66	3.1830	3.1828	-0.1091	25.08	0.10	-0.050			
0.9847	63018.65	3.1820	3.1818	-0.1088	25.08	0.10	-0.050			
0.9848	63025.61	3.1810	3.1809	-0.1085	25.07	0.09	-0.050			
0.9849	63032.54	3.1800	3.1806	-0.1082	25.07	0.09	-0.050			
0.9850	63039.41	3.1790	3.1787	-0.1079	25.07	0.09	-0.050			
0.9851	63046.31	3.1780	3.1779	-0.1076	25.07	0.09	-0.050			
0.9852	63053.19	3.1770	3.1772	-0.1074	25.07	0.09	-0.050			
0.9853	63060.29	3.1760	3.1760	-0.1065	25.07	0.09	-0.050			
0.9854	63067.09	3.1750	3.1749	-0.1061	25.07	0.09	-0.050			
0.9855	63074.26	3.1740	3.1738	-0.1065	25.07	0.09	-0.050			
0.9856	63081.06	3.1730	3.1730	-0.1058	25.07	0.09	-0.050			
0.9857	63087.81	3.1720	3.1721	-0.1051	25.07	0.09	-0.050			
0.9859	63094.51	3.1710	3.1709	-0.1045	25.07	0.09	-0.050			
0.9860	63100.80	3.1700	3.1700	-0.1049	25.06	0.08	-0.050			
0.9861	63107.21	3.1690	3.1692	-0.1038	25.06	0.08	-0.050			
0.9862	63113.85	3.1680	3.1682	-0.1036	25.06	0.08	-0.050			
0.9863	63120.47	3.1670	3.1671	-0.1034	25.06	0.08	-0.050			
0.9864	63127.08	3.1660	3.1660	-0.1032	25.05	0.07	-0.050			
0.9865	63133.85	3.1650	3.1649	-0.1026	25.05	0.07	-0.050			
0.9866	63140.40	3.1640	3.1641	-0.1023	25.05	0.07	-0.050			
0.9867	63146.94	3.1630	3.1630	-0.1020	25.05	0.07	-0.050			
0.9868	63153.51	3.1620	3.1619	-0.1018	25.05	0.07	-0.050			
0.9869	63160.01	3.1610	3.1608	-0.1015	25.05	0.07	-0.050			
0.9870	63166.50	3.1600	3.1598	-0.1012	25.05	0.07	-0.050			
0.9871	63172.96	3.1590	3.1588	-0.1008	25.05	0.07	-0.050			
0.9872	63179.43	3.1580	3.1579	-0.1004	25.05	0.07	-0.050			
0.9873	63185.85	3.1570	3.1570	-0.1001	25.05	0.07	-0.050			
0.9874	63192.22	3.1560	3.1565	-0.0996	25.05	0.07	-0.050			
0.9875	63198.58	3.1550	3.1552	-0.0993	25.05	0.07	-0.050			
0.9876	63204.93	3.1540	3.1540	-0.0990	25.05	0.07	-0.050			
0.9877	63211.25	3.1530	3.1529	-0.0986	25.05	0.07	-0.050			
0.9878	63217.55	3.1520	3.1519	-0.0983	25.05	0.07	-0.050			
0.9879	63223.85	3.1510	3.1509	-0.0979	25.06	0.08	-0.050			
0.9880	63230.36	3.1500	3.1499	-0.0982	25.06	0.08	-0.050			
0.9881	63236.63	3.1490	3.1488	-0.0977	25.06	0.08	-0.050			
0.9882	63242.86	3.1480	3.1481	-0.0972	25.06	0.08	-0.050			
0.9883	63249.07	3.1470	3.1471	-0.0967	25.06	0.08	-0.050			
0.9884	63255.24	3.1460	3.1458	-0.0962	25.06	0.08	-0.050			
0.9885	63260.88	3.1450	3.1449	-0.0954	25.06	0.08	-0.050			
0.9885	63266.98	3.1440	3.1439	-0.0953	25.06	0.08	-0.050			
0.9886	63273.07	3.1430	3.1429	-0.0951	25.05	0.07	-0.050			
0.9887	63279.16	3.1420	3.1420	-0.0950	25.05	0.07	-0.050			
0.9888	63285.23	3.1410	3.1410	-0.0949	25.05	0.07	-0.050			
0.9889	63291.30	3.1400	3.1399	-0.0947	25.05	0.07	-0.050			
0.9890	63297.50	3.1390	3.1392	-0.0941	25.05	0.07	-0.050			
0.9891	63303.58	3.1380	3.1381	-0.0941	25.05	0.07	-0.050			
0.9892	63309.60	3.1370	3.1369	-0.0938	25.05	0.07	-0.050			
0.9893	63315.60	3.1360	3.1359	-0.0936	25.05	0.07	-0.050			
0.9894	63321.57	3.1350	3.1350	-0.0933	25.05	0.07	-0.050			
0.9895	63327.54	3.1340	3.1340	-0.0930	25.04	0.06	-0.050			
0.9896	63333.48	3.1330	3.1330	-0.0927	25.04	0.06	-0.050			
0.9897	63339.41	3.1320	3.1319	-0.0925	25.04	0.06	-0.050			
0.9898	63345.48	3.1310	3.1310	-0.0921	25.04	0.06	-0.050			
0.9899	63351.36	3.1300	3.1306	-0.0917	25.04	0.06	-0.050			
0.9900	63357.22	3.1290	3.1291	-0.0913	25.04	0.06	-0.050			
0.9900	63363.05	3.1280	3.1279	-0.0909	25.04	0.06	-0.050			
0.9901	63368.86	3.1270	3.1269	-0.0906	25.04	0.06	-0.050			
0.9902	63374.65	3.1260	3.1259	-0.0902	25.04	0.06	-0.050			
0.9903	63380.62	3.1250	3.1249	-0.0900	25.03	0.05	-0.050			
0.9904	63386.05	3.1240	3.1239	-0.0899	25.03	0.05	-0.050			
0.9905	63391.79	3.1230	3.1230	-0.0896	25.03	0.05	-0.050			
0.9906	63397.52	3.1220	3.1221	-0.0893	25.03	0.05	-0.050			
0.9907	63403.22	3.1210	3.1212	-0.0889	25.03	0.05	-0.050			
0.9908	63408.90	3.1200	3.1201	-0.0886	25.03	0.05	-0.050			
0.9908	63414.29	3.1190	3.1189	-0.0880	25.03	0.05	-0.050			
0.9909	63419.98	3.1180	3.1179	-0.0878	25.03	0.05	-0.050			
0.9910	63425.59	3.1170	3.1169	-0.0876	25.03	0.05	-0.050			
0.9911	63431.19	3.1160	3.1160	-0.0874	25.03	0.05	-0.050			
0.9912	63436.78	3.1150	3.1150	-0.0872	25.03	0.05	-0.050			
0.9913	63442.36	3.1140	3.1140	-0.0871	25.03	0.05	-0.050			
0.9914	63447.92	3.1130	3.1130	-0.0869	25.03	0.05	-0.050			
0.9915	63453.48	3.1120	3.1122	-0.0867	25.03	0.05	-0.050			
0.9915	63458.98	3.1110	3.1114	-0.0865	25.03	0.05	-0.050			
0.9916	63464.62	3.1100	3.1101	-0.0862	25.03	0.05	-0.050			
0.9917	63470.12	3.1090	3.1090	-0.0859	25.03	0.05	-0.050			
0.9918	63475.62	3.1080	3.1079	-0.0857	25.03	0.05	-0.050			
0.9919	63481.10	3.1070	3.1069	-0.0855	25.03	0.05	-0.050			
0.9920	63486.56	3.1060	3.1059	-0.0853	25.03	0.05	-0.050			
0.9921	63492.01	3.1050	3.1049	-0.0850	25.03	0.05	-0.050			
0.9922	63497.65	3.1040	3.1039	-0.0850	25.03	0.05	-0.050			
0.9922	63503.18	3.1030	3.1028	-0.0845	25.03	0.05	-0.050			
0.9923	63508.58	3.1020	3.1019	-0.0841	25.03	0.05	-0.050			
0.9924	63513.94	3.1010	3.1013	-0.0837	25.03	0.05	-0.050			
0.9925	63519.29	3.1000	3.0999	-0.0833	25.03	0.05	-0.050			
0.9926	63524.61	3.0990	3.0989	-0.0829	25.03	0.05	-0.050			
0.9927	63529.94	3.0980	3.0979	-0.0826	25.03	0.05	-0.050			
0.9927	63535.21	3.0970	3.0969	-0.0821	25.03	0.05	-0.050			
0.9928	63540.23	3.0960	3.0960	-0.0821	25.03	0.05	-0.050			
0.9929	63545.47	3.0950	3.0950	-0.0818	25.03	0.05	-0.050			
0.9930	63550.70	3.0940	3.0940	-0.0815	25.03	0.05	-0.050			
0.9931	63555.91	3.0930	3.0930	-0.0812	25.03	0.05	-0.050			
0.9931	63561.10	3.0920	3.0920	-0.0810	25.03	0.05	-0.050			
0.9932	63566.27	3.0910	3.0911	-0.0807	25.03	0.05	-0.050			
0.9933	63571.31	3.0900	3.0901	-0.0803	25.03	0.05	-0.050			
0.9934	63576.44	3.0890	3.0890	-0.0800	25.03	0.05	-0.050			
0.9935	63581.50	3.0880	3.0878	-0.0800	25.02	0.04	-0.050			
0.9935	63586.61	3.0870	3.0868	-0.0798	25.02	0.04	-0.050			
0.9936	63591.71	3.0860	3.0859	-0.0796	25.02	0.04	-0.050			
0.9937	63596.79	3.0850	3.0850	-0.0794	25.02	0.04	-0.050			
0.9938	63601.87	3.0840	3.0840	-0.0792	25.02	0.04	-0.050			
0.9939	63606.73	3.0830	3.0830	-0.0787	25.01	0.03	-0.050			
0.9939	63611.77	3.0820	3.0819	-0.0787	25.01	0.03	-0.050			
0.9940	63616.80	3.0810	3.0812	-0.0786	25.01	0.03	-0.050			
0.9941	63622.03	3.0800	3.0802	-0.0781	25.01	0.03	-0.050			
0.9942	63627.02	3.0790	3.0789	-0.0779	25.01	0.03	-0.050			
0.9943	63632.00	3.0780	3.0779	-0.0777	25.01	0.03	-0.050			
0.9943	63636.97	3.0770	3.0769	-0.0775	25.01	0.03	-0.050			
0.9944	63642.16	3.0760	3.0759	-0.0777	25.01	0.03	-0.050			
0.9945	63647.12	3.0750	3.0750	-0.0774	25.01	0.03	-0.050			
0.9946	63652.06	3.0740	3.0739	-0.0770	25.01	0.03	-0.050			
0.9946	63656.87	3.0730	3.0730	-0.0769	25.01	0.03	-0.050			
0.9947	63661.78	3.0720	3.0719	-0.0766	25.01	0.03	-0.050			
0.9948	63666.68	3.0710	3.0709	-0.0764	25.01	0.03	-0.050			
0.9949	63671.56	3.0700	3.0703	-0.0761	25.01	0.03	-0.050			
0.9949	63676.42	3.0690	3.0691	-0.0758	25.01	0.03	-0.050			
0.9950	63681.22	3.0680	3.0679	-0.0755	25.01	0.03	-0.050			
0.9951	63686.04	3.0670	3.0670	-0.0753	25.01	0.03	-0.050			
0.9952	63690.88	3.0660	3.0660	-0.0750	25.01	0.03	-0.050			
0.9952	63695.67	3.0650	3.0650	-0.0747	25.01	0.03	-0.050			
0.9953	63700.44	3.0640	3.0640	-0.0745	25.01	0.03	-0.050			
0.9954	63705.20	3.0630	3.0630	-0.0742	25.01	0.03	-0.050			
0.9955	63709.94	3.0620	3.0620	-0.0740	25.01	0.03	-0.050			
0.9955	63714.67	3.0610	3.0609	-0.0737	25.01	0.03	-0.050			
0.9956	63719.32	3.0600	3.0600	-0.0734	25.01	0.03	-0.050			
0.9957	63724.01	3.0590	3.0594	-0.0732	25.01	0.03	-0.050			
0.9958	63728.69	3.0580	3.0582	-0.0729	25.01	0.03	-0.050			
0.9958	63733.35	3.0570	3.0569	-0.0727	25.01	0.03	-0.050			
0.9959	63738.00	3.0560	3.0559	-0.0725	25.01	0.03	-0.050			
0.9960	63742.63	3.0550	3.0549	-0.0723	25.01	0.03	-0.050			
0.9961	63747.25	3.0540	3.0539	-0.0720	25.01	0.03	-0.050			
0.9961	63751.94	3.0530	3.0529	-0.0719	25.01	0.03	-0.050			
0.9962	63756.53	3.0520	3.0518	-0.0717	25.01	0.03	-0.050			
0.9963	63761.11	3.0510	3.0507	-0.0714	25.01	0.03	-0.050			
0.9963	63765.54	3.0500	3.0498	-0.0714	25.01	0.03	-0.050			
0.9964	63770.10	3.0490	3.0489	-0.0712	25.01	0.03	-0.050			
0.9965	63774.65	3.0480	3.0482	-0.0710	25.01	0.03	-0.050			
0.9965	63779.19	3.0470	3.0474	-0.0708	25.01	0.03	-0.050			
0.9966	63783.57	3.0460	3.0461	-0.0704	25.01	0.03	-0.050			
0.9967	63788.07	3.0450	3.0450	-0.0703	25.01	0.03	-0.050			
0.9968	63792.57	3.0440	3.0439	-0.0702	25.01	0.03	-0.050			
0.9968	63797.23	3.0430	3.0429	-0.0698	25.01	0.03	-0.050			
0.9969	63801.69	3.0420	3.0420	-0.0696	25.01	0.03	-0.050			
0.9970	63806.14	3.0410	3.0410	-0.0694	25.02	0.04	-0.050			
0.9970	63810.57	3.0400	3.0400	-0.0692	25.02	0.04	-0.050			
0.9971	63815.00	3.0390	3.0390	-0.0690	25.02	0.04	-0.050			
0.9972	63819.50	3.0380	3.0380	-0.0690	25.02	0.04	-0.050			
0.9972	63823.90	3.0370	3.0369	-0.0687	25.02	0.04	-0.050			
0.9973	63828.29	3.0360	3.0359	-0.0685	25.02	0.04	-0.050			
0.9974	63832.67	3.0350	3.0355	-0.0682	25.02	0.04	-0.050			
0.9975	63837.00	3.0340	3.0340	-0.0680	25.02	0.04	-0.050			
0.9975	63841.35	3.0330	3.0329	-0.0678	25.02	0.04	-0.050			
0.9976	63845.68	3.0320	3.0319	-0.0675	25.02	0.04	-0.050			
0.9977	63849.99	3.0310	3.0310	-0.0673	25.02	0.04	-0.050			
0.9977	63854.36	3.0300	3.0300	-0.0672	25.02	0.04	-0.050			
0.9978	63858.65	3.0290	3.0289	-0.0669	25.02	0.04	-0.050			
0.9979	63862.93	3.0280	3.0279	-0.0667	25.02	0.04	-0.050			
0.9979	63867.18	3.0270	3.0269	-0.0664	25.02	0.04	-0.050			
0.9980	63871.42	3.0260	3.0259	-0.0661	25.02	0.04	-0.050			
0.9981	63875.50	3.0250	3.0250	-0.0662	25.02	0.04	-0.050			
0.9981	63879.74	3.0240	3.0240	-0.0661	25.02	0.04	-0.050			
0.9982	63883.79	3.0230	3.0231	-0.0655	25.02	0.04	-0.050			
0.9982	63887.98	3.0220	3.0221	-0.0654	25.02	0.04	-0.050			
0.9983	63892.16	3.0210	3.0210	-0.0653	25.02	0.04	-0.050			
0.9984	63896.34	3.0200	3.0200	-0.0652	25.02	0.04	-0.050			
0.9984	63900.51	3.0190	3.0190	-0.0651	25.02	0.04	-0.050			
0.9985	63904.67	3.0180	3.0180	-0.0650	25.02	0.04	-0.050			
0.9986	63908.96	3.0170	3.0170	-0.0644	25.02	0.04	-0.050			
0.9986	63913.08	3.0160	3.0159	-0.0642	25.01	0.03	-0.050			
0.9987	63917.18	3.0150	3.0149	-0.0641	25.01	0.03	-0.050			
0.9988	63921.41	3.0140	3.0139	-0.0641	25.01	0.03	-0.050			
0.9988	63925.50	3.0130	3.0130	-0.0638	25.01	0.03	-0.050			
0.9989	63929.58	3.0120	3.0120	-0.0636	25.01	0.03	-0.050			
0.9990	63933.64	3.0110	3.0110	-0.0633	25.01	0.03	-0.050			
0.9990	63937.68	3.0100	3.0103	-0.0631	25.01	0.03	-0.050			
0.9991	63941.71	3.0090	3.0092	-0.0628	25.01	0.03	-0.050			
0.9992	63945.72	3.0080	3.0080	-0.0626	25.01	0.03	-0.050			
0.9992	63949.72	3.0070	3.0070	-0.0623	25.01	0.03	-0.050			
0.9993	63953.69	3.0060	3.0060	-0.0620	25.01	0.03	-0.050			
0.9993	63957.87	3.0050	3.0049	-0.0610	25.01	0.03	-0.050			
0.9994	63961.76	3.0040	3.0040	-0.0605	25.01	0.03	-0.050			
0.9995	63965.61	3.0030	3.0029	-0.0600	25.00	0.02	-0.050			
0.9995	63969.43	3.0020	3.0020	-0.0594	25.00	0.02	-0.050			
