Ah_balance (normalized)	Ah_balance (mAh)	Voltage - fit (V)	Voltage -  interpolate (V)	dQ/dV (1/V)	Temperature (°C)	Temperature - diff (°C)	Current (C)	R_DC 0ms (mOhm)	R_DC 50ms (mOhm)	R_DC 50 ms PEC (mOhm)
-0.0000	-0.01	4.1870	4.1897	-0.3814	24.22	0.00	-0.049			
0.0004	25.13	4.1860	4.1857	-0.4193	24.22	0.00	-0.050			
0.0008	53.07	4.1850	4.1847	-0.4553	24.22	0.00	-0.050			
0.0013	83.42	4.1840	4.1838	-0.4832	24.22	0.00	-0.050			
0.0018	115.69	4.1830	4.1829	-0.5076	24.22	0.00	-0.050			
0.0023	149.45	4.1820	4.1819	-0.5283	24.21	-0.01	-0.050			
0.0029	184.43	4.1810	4.1810	-0.5466	24.20	-0.02	-0.050			
0.0034	220.44	4.1800	4.1799	-0.5630	24.20	-0.02	-0.050			
0.0040	257.45	4.1790	4.1790	-0.5783	24.20	-0.02	-0.050			
0.0046	295.50	4.1780	4.1781	-0.5922	24.20	-0.02	-0.050			
0.0052	334.60	4.1770	4.1770	-0.6044	24.18	-0.04	-0.050			
0.0058	374.23	4.1760	4.1760	-0.6155	24.17	-0.05	-0.050			
0.0065	414.32	4.1750	4.1751	-0.6263	24.17	-0.05	-0.050			
0.0072	457.75	4.1740	4.1740	-0.6399	24.17	-0.05	-0.050			
0.0078	499.67	4.1730	4.1730	-0.6482	24.16	-0.06	-0.050			
0.0085	541.85	4.1720	4.1721	-0.6559	24.15	-0.07	-0.050			
0.0091	584.52	4.1710	4.1710	-0.6625	24.14	-0.08	-0.050			
0.0098	627.47	4.1700	4.1700	-0.6693	24.14	-0.08	-0.050			
0.0105	670.78	4.1690	4.1690	-0.6753	24.14	-0.08	-0.050			
0.0112	714.26	4.1680	4.1681	-0.6808	24.14	-0.08	-0.050			
0.0118	758.38	4.1670	4.1670	-0.6857	24.14	-0.08	-0.050			
0.0125	802.74	4.1660	4.1660	-0.6907	24.14	-0.08	-0.050			
0.0132	847.07	4.1650	4.1650	-0.6957	24.14	-0.08	-0.050			
0.0139	891.95	4.1640	4.1640	-0.7007	24.14	-0.08	-0.050			
0.0146	936.89	4.1630	4.1630	-0.7050	24.14	-0.08	-0.050			
0.0153	982.38	4.1620	4.1620	-0.7087	24.14	-0.08	-0.050			
0.0161	1027.91	4.1610	4.1610	-0.7123	24.14	-0.08	-0.050			
0.0168	1073.63	4.1600	4.1600	-0.7159	24.14	-0.08	-0.050			
0.0175	1119.63	4.1590	4.1590	-0.7195	24.15	-0.07	-0.050			
0.0182	1165.81	4.1580	4.1580	-0.7235	24.16	-0.06	-0.050			
0.0189	1212.58	4.1570	4.1570	-0.7266	24.16	-0.06	-0.050			
0.0197	1259.42	4.1560	4.1560	-0.7297	24.16	-0.06	-0.050	0.462	0.487	
0.0204	1306.24	4.1550	4.1551	-0.7321	24.17	-0.05	-0.050			
0.0211	1353.14	4.1540	4.1541	-0.7352	24.18	-0.04	-0.050			
0.0219	1400.59	4.1530	4.1531	-0.7380	24.18	-0.04	-0.050			
0.0226	1448.00	4.1520	4.1520	-0.7411	24.18	-0.04	-0.050			
0.0234	1495.44	4.1510	4.1510	-0.7436	24.19	-0.03	-0.050			
0.0241	1543.06	4.1500	4.1500	-0.7466	24.20	-0.02	-0.050			
0.0249	1591.04	4.1490	4.1490	-0.7481	24.20	-0.02	-0.050			
0.0256	1638.98	4.1480	4.1481	-0.7508	24.20	-0.02	-0.050			
0.0264	1687.03	4.1470	4.1469	-0.7537	24.20	-0.02	-0.050			
0.0271	1735.32	4.1460	4.1459	-0.7562	24.21	-0.01	-0.050			
0.0279	1783.86	4.1450	4.1450	-0.7579	24.21	-0.01	-0.050			
0.0286	1832.47	4.1440	4.1440	-0.7592	24.22	-0.00	-0.050			
0.0294	1881.33	4.1430	4.1430	-0.7614	24.22	0.00	-0.050			
0.0302	1930.24	4.1420	4.1420	-0.7633	24.22	0.00	-0.050			
0.0309	1979.30	4.1410	4.1410	-0.7651	24.22	0.00	-0.050			
0.0317	2028.33	4.1400	4.1400	-0.7669	24.23	0.01	-0.050			
0.0325	2077.45	4.1390	4.1389	-0.7689	24.22	0.00	-0.050			
0.0332	2126.72	4.1380	4.1381	-0.7709	24.22	0.00	-0.050			
0.0340	2176.15	4.1370	4.1370	-0.7727	24.22	0.00	-0.050			
0.0348	2225.91	4.1360	4.1360	-0.7742	24.22	0.00	-0.050			
0.0356	2275.36	4.1350	4.1348	-0.7757	24.22	0.00	-0.050			
0.0363	2325.03	4.1340	4.1339	-0.7778	24.22	0.00	-0.050			
0.0371	2374.69	4.1330	4.1330	-0.7794	24.22	0.00	-0.050			
0.0379	2424.70	4.1320	4.1320	-0.7805	24.22	-0.00	-0.050			
0.0387	2474.84	4.1310	4.1310	-0.7813	24.21	-0.01	-0.050			
0.0395	2524.92	4.1300	4.1299	-0.7829	24.22	-0.00	-0.050			
0.0402	2575.27	4.1290	4.1291	-0.7839	24.20	-0.02	-0.050	0.375	0.520	
0.0410	2625.68	4.1280	4.1281	-0.7857	24.20	-0.02	-0.050			
0.0418	2675.84	4.1270	4.1270	-0.7867	24.21	-0.01	-0.050			
0.0426	2726.31	4.1260	4.1259	-0.7878	24.20	-0.02	-0.050			
0.0434	2776.97	4.1250	4.1250	-0.7896	24.21	-0.01	-0.050			
0.0442	2827.76	4.1240	4.1241	-0.7910	24.20	-0.02	-0.050			
0.0450	2878.32	4.1230	4.1231	-0.7917	24.21	-0.01	-0.050			
0.0458	2928.88	4.1220	4.1220	-0.7927	24.20	-0.02	-0.050			
0.0466	2979.59	4.1210	4.1209	-0.7942	24.20	-0.02	-0.050			
0.0473	3030.34	4.1200	4.1200	-0.7954	24.20	-0.02	-0.050			
0.0481	3081.04	4.1190	4.1190	-0.7966	24.20	-0.02	-0.050			
0.0489	3132.01	4.1180	4.1181	-0.7978	24.20	-0.02	-0.050			
0.0497	3183.29	4.1170	4.1169	-0.7988	24.20	-0.02	-0.050			
0.0505	3234.53	4.1160	4.1160	-0.8000	24.20	-0.02	-0.050			
0.0513	3285.70	4.1150	4.1150	-0.8006	24.21	-0.01	-0.050			
0.0521	3337.09	4.1140	4.1139	-0.8021	24.20	-0.02	-0.050			
0.0529	3388.31	4.1130	4.1131	-0.8035	24.20	-0.02	-0.050			
0.0538	3440.12	4.1120	4.1120	-0.8053	24.20	-0.02	-0.050			
0.0546	3491.78	4.1110	4.1110	-0.8067	24.20	-0.02	-0.050			
0.0554	3543.54	4.1100	4.1100	-0.8076	24.20	-0.02	-0.050			
0.0562	3595.10	4.1090	4.1090	-0.8083	24.20	-0.02	-0.050			
0.0570	3646.67	4.1080	4.1080	-0.8094	24.20	-0.02	-0.050			
0.0578	3698.82	4.1070	4.1070	-0.8111	24.20	-0.02	-0.050			
0.0586	3750.57	4.1060	4.1060	-0.8118	24.19	-0.03	-0.050			
0.0594	3802.49	4.1050	4.1050	-0.8127	24.19	-0.03	-0.050			
0.0602	3854.88	4.1040	4.1040	-0.8137	24.18	-0.04	-0.050			
0.0610	3906.78	4.1030	4.1031	-0.8145	24.18	-0.04	-0.050			
0.0619	3958.82	4.1020	4.1020	-0.8154	24.18	-0.04	-0.050			
0.0627	4011.05	4.1010	4.1010	-0.8160	24.18	-0.04	-0.050			
0.0635	4063.38	4.1000	4.1000	-0.8169	24.18	-0.04	-0.050			
0.0643	4115.77	4.0990	4.0991	-0.8175	24.17	-0.05	-0.050			
0.0651	4168.28	4.0980	4.0980	-0.8188	24.16	-0.06	-0.050			
0.0660	4220.95	4.0970	4.0970	-0.8199	24.17	-0.05	-0.050			
0.0668	4273.52	4.0960	4.0960	-0.8203	24.17	-0.05	-0.050			
0.0676	4325.94	4.0950	4.0951	-0.8203	24.16	-0.06	-0.050			
0.0684	4378.29	4.0940	4.0939	-0.8208	24.17	-0.05	-0.050			
0.0692	4430.75	4.0930	4.0931	-0.8216	24.16	-0.06	-0.050			
0.0701	4483.37	4.0920	4.0921	-0.8219	24.16	-0.06	-0.050			
0.0709	4535.79	4.0910	4.0909	-0.8231	24.16	-0.06	-0.050			
0.0717	4588.83	4.0900	4.0901	-0.8238	24.15	-0.07	-0.050			
0.0725	4641.38	4.0890	4.0890	-0.8242	24.14	-0.08	-0.050			
0.0733	4693.94	4.0880	4.0880	-0.8249	24.14	-0.08	-0.050			
0.0742	4746.84	4.0870	4.0870	-0.8255	24.14	-0.08	-0.050			
0.0750	4799.64	4.0860	4.0860	-0.8270	24.14	-0.08	-0.050			
0.0758	4852.51	4.0850	4.0850	-0.8280	24.14	-0.08	-0.050			
0.0767	4905.88	4.0840	4.0840	-0.8283	24.14	-0.08	-0.050			
0.0775	4958.82	4.0830	4.0830	-0.8283	24.14	-0.08	-0.050			
0.0783	5011.74	4.0820	4.0819	-0.8293	24.14	-0.08	-0.050			
0.0791	5065.02	4.0810	4.0810	-0.8307	24.14	-0.08	-0.050			
0.0800	5117.93	4.0800	4.0800	-0.8312	24.14	-0.08	-0.050	0.056	0.522	
0.0808	5171.24	4.0790	4.0790	-0.8329	24.14	-0.08	-0.050			
0.0816	5224.40	4.0780	4.0780	-0.8339	24.15	-0.07	-0.050			
0.0825	5277.92	4.0770	4.0770	-0.8350	24.16	-0.06	-0.050			
0.0833	5331.47	4.0760	4.0760	-0.8358	24.16	-0.06	-0.050			
0.0841	5384.78	4.0750	4.0750	-0.8371	24.16	-0.06	-0.050			
0.0850	5438.33	4.0740	4.0739	-0.8382	24.17	-0.05	-0.050			
0.0858	5491.87	4.0730	4.0730	-0.8395	24.18	-0.04	-0.050			
0.0867	5545.88	4.0720	4.0719	-0.8405	24.19	-0.03	-0.050			
0.0875	5599.78	4.0710	4.0710	-0.8406	24.20	-0.02	-0.050			
0.0883	5653.67	4.0700	4.0700	-0.8414	24.20	-0.02	-0.050			
0.0892	5707.75	4.0690	4.0690	-0.8423	24.21	-0.01	-0.050			
0.0900	5761.74	4.0680	4.0680	-0.8430	24.22	-0.00	-0.050			
0.0909	5815.71	4.0670	4.0670	-0.8439	24.22	0.00	-0.050			
0.0917	5869.82	4.0660	4.0660	-0.8446	24.22	0.00	-0.050			
0.0926	5923.94	4.0650	4.0651	-0.8458	24.23	0.01	-0.050			
0.0934	5978.31	4.0640	4.0641	-0.8465	24.24	0.02	-0.050			
0.0943	6032.40	4.0630	4.0631	-0.8470	24.24	0.02	-0.050			
0.0951	6086.27	4.0620	4.0620	-0.8477	24.24	0.02	-0.050			
0.0959	6140.52	4.0610	4.0610	-0.8482	24.25	0.03	-0.050			
0.0968	6194.71	4.0600	4.0600	-0.8492	24.26	0.04	-0.050			
0.0976	6249.01	4.0590	4.0589	-0.8502	24.26	0.04	-0.050			
0.0985	6303.43	4.0580	4.0581	-0.8510	24.26	0.04	-0.050			
0.0993	6357.92	4.0570	4.0570	-0.8524	24.27	0.05	-0.050			
0.1002	6412.53	4.0560	4.0559	-0.8534	24.28	0.06	-0.050	0.295	0.474	
0.1011	6467.30	4.0550	4.0550	-0.8538	24.28	0.06	-0.050			
0.1019	6521.99	4.0540	4.0539	-0.8548	24.28	0.06	-0.050			
0.1028	6576.81	4.0530	4.0530	-0.8563	24.28	0.06	-0.050			
0.1036	6631.66	4.0520	4.0521	-0.8574	24.28	0.06	-0.050			
0.1045	6686.83	4.0510	4.0510	-0.8585	24.29	0.07	-0.050			
0.1053	6741.73	4.0500	4.0501	-0.8593	24.29	0.07	-0.050			
0.1062	6796.73	4.0490	4.0491	-0.8601	24.28	0.06	-0.050			
0.1071	6851.84	4.0480	4.0480	-0.8605	24.30	0.08	-0.050			
0.1079	6906.86	4.0470	4.0470	-0.8617	24.29	0.07	-0.050			
0.1088	6962.02	4.0460	4.0460	-0.8626	24.29	0.07	-0.050			
0.1096	7017.09	4.0450	4.0450	-0.8632	24.29	0.07	-0.050			
0.1105	7072.32	4.0440	4.0440	-0.8644	24.29	0.07	-0.050			
0.1114	7127.75	4.0430	4.0430	-0.8647	24.28	0.06	-0.050			
0.1122	7183.23	4.0420	4.0420	-0.8655	24.28	0.06	-0.050			
0.1131	7238.63	4.0410	4.0410	-0.8657	24.28	0.06	-0.050			
0.1140	7294.04	4.0400	4.0400	-0.8671	24.28	0.06	-0.050			
0.1148	7349.63	4.0390	4.0390	-0.8681	24.28	0.06	-0.050			
0.1157	7405.20	4.0380	4.0380	-0.8691	24.28	0.06	-0.050			
0.1166	7460.89	4.0370	4.0371	-0.8699	24.28	0.06	-0.050			
0.1174	7516.49	4.0360	4.0360	-0.8712	24.26	0.04	-0.050			
0.1183	7572.34	4.0350	4.0350	-0.8725	24.27	0.05	-0.050			
0.1192	7628.33	4.0340	4.0341	-0.8733	24.26	0.04	-0.050			
0.1201	7684.12	4.0330	4.0330	-0.8733	24.26	0.04	-0.050	0.424	0.494	
0.1209	7740.07	4.0320	4.0319	-0.8746	24.26	0.04	-0.050			
0.1218	7796.05	4.0310	4.0310	-0.8754	24.26	0.04	-0.050			
0.1227	7852.17	4.0300	4.0301	-0.8760	24.26	0.04	-0.050			
0.1236	7908.30	4.0290	4.0289	-0.8763	24.25	0.03	-0.050			
0.1244	7964.29	4.0280	4.0280	-0.8778	24.25	0.03	-0.050			
0.1253	8020.35	4.0270	4.0271	-0.8786	24.24	0.02	-0.050			
0.1262	8076.74	4.0260	4.0260	-0.8799	24.24	0.02	-0.050			
0.1271	8132.97	4.0250	4.0250	-0.8809	24.24	0.02	-0.050			
0.1280	8189.57	4.0240	4.0240	-0.8818	24.24	0.02	-0.050			
0.1288	8245.99	4.0230	4.0230	-0.8829	24.24	0.02	-0.050			
0.1297	8302.45	4.0220	4.0220	-0.8841	24.24	0.02	-0.050			
0.1306	8358.90	4.0210	4.0210	-0.8851	24.23	0.01	-0.050			
0.1315	8415.58	4.0200	4.0200	-0.8852	24.22	0.00	-0.050			
0.1324	8472.47	4.0190	4.0189	-0.8866	24.23	0.01	-0.050			
0.1333	8529.11	4.0180	4.0181	-0.8876	24.22	0.00	-0.050			
0.1342	8585.80	4.0170	4.0170	-0.8890	24.22	0.00	-0.050			
0.1350	8643.12	4.0160	4.0160	-0.8899	24.21	-0.01	-0.050			
0.1359	8700.06	4.0150	4.0149	-0.8906	24.20	-0.02	-0.050			
0.1368	8757.24	4.0140	4.0140	-0.8919	24.20	-0.02	-0.050			
0.1377	8814.53	4.0130	4.0130	-0.8921	24.19	-0.03	-0.050			
0.1386	8871.52	4.0120	4.0120	-0.8928	24.19	-0.03	-0.050			
0.1395	8928.71	4.0110	4.0110	-0.8932	24.19	-0.03	-0.050			
0.1404	8985.96	4.0100	4.0100	-0.8944	24.18	-0.04	-0.050			
0.1413	9043.09	4.0090	4.0090	-0.8955	24.18	-0.04	-0.050			
0.1422	9100.18	4.0080	4.0080	-0.8957	24.19	-0.03	-0.050			
0.1431	9157.33	4.0070	4.0072	-0.8972	24.19	-0.03	-0.050			
0.1440	9214.84	4.0060	4.0059	-0.8986	24.19	-0.03	-0.050			
0.1449	9272.44	4.0050	4.0050	-0.8994	24.20	-0.02	-0.050			
0.1458	9329.96	4.0040	4.0040	-0.9003	24.20	-0.02	-0.050			
0.1467	9387.34	4.0030	4.0029	-0.9019	24.20	-0.02	-0.050			
0.1476	9445.01	4.0020	4.0020	-0.9032	24.21	-0.01	-0.050			
0.1485	9503.04	4.0010	4.0009	-0.9045	24.22	0.00	-0.050			
0.1494	9561.07	4.0000	4.0000	-0.9063	24.22	0.00	-0.050			
0.1503	9619.18	3.9990	3.9990	-0.9076	24.22	0.00	-0.050			
0.1512	9676.88	3.9980	3.9981	-0.9093	24.23	0.01	-0.050			
0.1521	9735.19	3.9970	3.9970	-0.9107	24.24	0.02	-0.050			
0.1530	9793.94	3.9960	3.9961	-0.9126	24.25	0.03	-0.050			
0.1539	9852.43	3.9950	3.9950	-0.9138	24.24	0.02	-0.050			
0.1549	9911.13	3.9940	3.9939	-0.9145	24.25	0.03	-0.050			
0.1558	9969.65	3.9930	3.9930	-0.9156	24.26	0.04	-0.050			
0.1567	10028.44	3.9920	3.9921	-0.9169	24.26	0.04	-0.050			
0.1576	10087.18	3.9910	3.9910	-0.9175	24.26	0.04	-0.050			
0.1585	10145.61	3.9900	3.9900	-0.9181	24.26	0.04	-0.050			
0.1594	10204.49	3.9890	3.9890	-0.9194	24.26	0.04	-0.050			
0.1604	10263.52	3.9880	3.9880	-0.9200	24.26	0.04	-0.050			
0.1613	10322.34	3.9870	3.9871	-0.9208	24.26	0.04	-0.050			
0.1622	10381.51	3.9860	3.9860	-0.9211	24.26	0.04	-0.050			
0.1631	10440.52	3.9850	3.9850	-0.9225	24.26	0.04	-0.050			
0.1641	10499.79	3.9840	3.9840	-0.9229	24.25	0.03	-0.050			
0.1650	10558.64	3.9830	3.9831	-0.9228	24.25	0.03	-0.050			
0.1659	10617.55	3.9820	3.9820	-0.9234	24.25	0.03	-0.050			
0.1668	10676.85	3.9810	3.9810	-0.9249	24.24	0.02	-0.050			
0.1677	10735.83	3.9800	3.9800	-0.9256	24.24	0.02	-0.050			
0.1687	10794.95	3.9790	3.9790	-0.9265	24.24	0.02	-0.050			
0.1696	10854.25	3.9780	3.9780	-0.9270	24.24	0.02	-0.050			
0.1705	10913.66	3.9770	3.9771	-0.9276	24.24	0.02	-0.050			
0.1715	10973.30	3.9760	3.9759	-0.9291	24.25	0.03	-0.050			
0.1724	11032.75	3.9750	3.9751	-0.9299	24.25	0.03	-0.050			
0.1733	11092.13	3.9740	3.9740	-0.9314	24.24	0.02	-0.050			
0.1742	11151.56	3.9730	3.9730	-0.9320	24.24	0.02	-0.050			
0.1752	11211.24	3.9720	3.9720	-0.9332	24.24	0.02	-0.050			
0.1761	11270.92	3.9710	3.9710	-0.9353	24.24	0.02	-0.050			
0.1770	11330.61	3.9700	3.9700	-0.9365	24.24	0.02	-0.050			
0.1780	11390.58	3.9690	3.9690	-0.9382	24.24	0.02	-0.050			
0.1789	11450.98	3.9680	3.9680	-0.9397	24.24	0.02	-0.050			
0.1799	11510.99	3.9670	3.9670	-0.9407	24.24	0.02	-0.050	0.345	0.536	
0.1808	11571.48	3.9660	3.9660	-0.9426	24.23	0.01	-0.050			
0.1817	11631.80	3.9650	3.9650	-0.9431	24.22	0.00	-0.050			
0.1827	11692.50	3.9640	3.9639	-0.9444	24.23	0.01	-0.050			
0.1836	11752.86	3.9630	3.9630	-0.9455	24.22	0.00	-0.050			
0.1846	11813.21	3.9620	3.9619	-0.9468	24.23	0.01	-0.050			
0.1855	11874.05	3.9610	3.9610	-0.9483	24.22	0.00	-0.050			
0.1865	11934.88	3.9600	3.9600	-0.9489	24.23	0.01	-0.050			
0.1874	11995.75	3.9590	3.9590	-0.9498	24.22	0.00	-0.050			
0.1884	12056.82	3.9580	3.9580	-0.9513	24.22	0.00	-0.050			
0.1893	12117.84	3.9570	3.9570	-0.9514	24.22	0.00	-0.050			
0.1903	12179.04	3.9560	3.9560	-0.9509	24.22	0.00	-0.050			
0.1912	12239.61	3.9550	3.9550	-0.9513	24.22	0.00	-0.050			
0.1922	12300.34	3.9540	3.9540	-0.9522	24.22	0.00	-0.050			
0.1931	12361.15	3.9530	3.9530	-0.9530	24.21	-0.01	-0.050			
0.1941	12421.96	3.9520	3.9520	-0.9543	24.20	-0.02	-0.050			
0.1950	12482.87	3.9510	3.9510	-0.9551	24.20	-0.02	-0.050			
0.1960	12544.05	3.9500	3.9499	-0.9564	24.20	-0.02	-0.050			
0.1970	12605.36	3.9490	3.9490	-0.9571	24.20	-0.02	-0.050			
0.1979	12666.73	3.9480	3.9480	-0.9583	24.20	-0.02	-0.050			
0.1989	12728.07	3.9470	3.9470	-0.9589	24.20	-0.02	-0.050			
0.1998	12789.46	3.9460	3.9459	-0.9598	24.20	-0.02	-0.050	0.464	0.561	
0.2008	12850.98	3.9450	3.9450	-0.9614	24.19	-0.03	-0.050			
0.2018	12912.36	3.9440	3.9440	-0.9620	24.18	-0.04	-0.050			
0.2027	12974.00	3.9430	3.9430	-0.9630	24.18	-0.04	-0.050			
0.2037	13035.60	3.9420	3.9421	-0.9640	24.18	-0.04	-0.050			
0.2046	13097.53	3.9410	3.9410	-0.9651	24.18	-0.04	-0.050			
0.2056	13159.65	3.9400	3.9401	-0.9660	24.18	-0.04	-0.050			
0.2066	13221.43	3.9390	3.9389	-0.9667	24.18	-0.04	-0.050			
0.2076	13283.50	3.9380	3.9380	-0.9674	24.18	-0.04	-0.050			
0.2085	13345.23	3.9370	3.9369	-0.9692	24.19	-0.03	-0.050			
0.2095	13407.35	3.9360	3.9360	-0.9700	24.18	-0.04	-0.050			
0.2105	13469.37	3.9350	3.9350	-0.9692	24.18	-0.04	-0.050			
0.2114	13531.25	3.9340	3.9340	-0.9700	24.19	-0.03	-0.050			
0.2124	13593.23	3.9330	3.9330	-0.9717	24.20	-0.02	-0.050			
0.2134	13655.32	3.9320	3.9320	-0.9728	24.20	-0.02	-0.050			
0.2143	13717.84	3.9310	3.9310	-0.9741	24.20	-0.02	-0.050			
0.2153	13780.32	3.9300	3.9299	-0.9752	24.20	-0.02	-0.050			
0.2163	13843.00	3.9290	3.9290	-0.9758	24.20	-0.02	-0.050			
0.2173	13905.28	3.9280	3.9280	-0.9768	24.21	-0.01	-0.050			
0.2182	13967.88	3.9270	3.9271	-0.9776	24.22	0.00	-0.050			
0.2192	14030.42	3.9260	3.9260	-0.9787	24.22	0.00	-0.050			
0.2202	14093.07	3.9250	3.9250	-0.9791	24.22	0.00	-0.050	0.220	0.532	
0.2212	14155.68	3.9240	3.9241	-0.9808	24.23	0.01	-0.050			
0.2222	14218.34	3.9230	3.9231	-0.9821	24.24	0.02	-0.050			
0.2231	14281.23	3.9220	3.9220	-0.9837	24.25	0.03	-0.050			
0.2241	14344.40	3.9210	3.9209	-0.9849	24.26	0.04	-0.050			
0.2251	14407.41	3.9200	3.9199	-0.9859	24.26	0.04	-0.050			
0.2261	14470.61	3.9190	3.9189	-0.9871	24.26	0.04	-0.050			
0.2271	14533.67	3.9180	3.9180	-0.9879	24.27	0.05	-0.050			
0.2281	14596.53	3.9170	3.9170	-0.9891	24.26	0.04	-0.050			
0.2291	14660.16	3.9160	3.9160	-0.9910	24.26	0.04	-0.050			
0.2301	14723.70	3.9150	3.9150	-0.9927	24.27	0.05	-0.050			
0.2311	14787.41	3.9140	3.9140	-0.9923	24.26	0.04	-0.050			
0.2320	14850.94	3.9130	3.9130	-0.9933	24.26	0.04	-0.050			
0.2330	14914.80	3.9120	3.9120	-0.9944	24.26	0.04	-0.050			
0.2340	14978.83	3.9110	3.9110	-0.9952	24.25	0.03	-0.050			
0.2350	15042.73	3.9100	3.9100	-0.9958	24.24	0.02	-0.050			
0.2360	15106.59	3.9090	3.9090	-0.9960	24.24	0.02	-0.050			
0.2370	15170.22	3.9080	3.9080	-0.9960	24.22	0.00	-0.050			
0.2380	15233.94	3.9070	3.9071	-0.9968	24.22	-0.00	-0.050			
0.2390	15297.85	3.9060	3.9060	-0.9967	24.21	-0.01	-0.050			
0.2400	15361.53	3.9050	3.9050	-0.9968	24.20	-0.02	-0.050	0.435	0.461	
0.2410	15425.08	3.9040	3.9039	-0.9973	24.19	-0.03	-0.050			
0.2420	15488.81	3.9030	3.9030	-0.9980	24.18	-0.04	-0.050			
0.2430	15552.85	3.9020	3.9020	-0.9982	24.18	-0.04	-0.050			
0.2440	15616.96	3.9010	3.9009	-0.9981	24.16	-0.06	-0.050			
0.2450	15680.83	3.9000	3.9000	-0.9979	24.15	-0.07	-0.050			
0.2460	15744.76	3.8990	3.8990	-0.9973	24.14	-0.08	-0.050			
0.2470	15808.43	3.8980	3.8980	-0.9975	24.14	-0.08	-0.050			
0.2480	15872.23	3.8970	3.8971	-0.9971	24.13	-0.09	-0.050			
0.2490	15936.05	3.8960	3.8960	-0.9987	24.12	-0.10	-0.050			
0.2500	15999.98	3.8950	3.8950	-0.9999	24.11	-0.11	-0.050			
0.2510	16064.04	3.8940	3.8940	-1.0007	24.10	-0.12	-0.050			
0.2520	16128.10	3.8930	3.8931	-1.0000	24.10	-0.12	-0.050			
0.2530	16192.24	3.8920	3.8920	-1.0009	24.10	-0.12	-0.050			
0.2540	16256.22	3.8910	3.8909	-1.0013	24.08	-0.14	-0.050			
0.2550	16320.13	3.8900	3.8900	-1.0016	24.07	-0.15	-0.050			
0.2560	16384.19	3.8890	3.8890	-1.0023	24.06	-0.16	-0.050			
0.2570	16448.03	3.8880	3.8880	-1.0030	24.05	-0.17	-0.050			
0.2580	16512.17	3.8870	3.8870	-1.0039	24.05	-0.17	-0.050			
0.2590	16576.75	3.8860	3.8861	-1.0044	24.04	-0.18	-0.050			
0.2600	16640.70	3.8850	3.8850	-1.0056	24.04	-0.18	-0.050	0.267	0.473	
0.2610	16704.99	3.8840	3.8840	-1.0067	24.04	-0.18	-0.050			
0.2620	16769.51	3.8830	3.8829	-1.0086	24.04	-0.18	-0.050			
0.2630	16834.08	3.8820	3.8820	-1.0107	24.02	-0.20	-0.050			
0.2640	16898.90	3.8810	3.8810	-1.0123	24.02	-0.20	-0.050			
0.2651	16963.78	3.8800	3.8800	-1.0133	24.02	-0.20	-0.050			
0.2661	17028.59	3.8790	3.8790	-1.0142	24.01	-0.21	-0.050			
0.2671	17093.57	3.8780	3.8781	-1.0144	24.02	-0.20	-0.050			
0.2681	17158.61	3.8770	3.8770	-1.0154	24.02	-0.20	-0.050			
0.2691	17223.51	3.8760	3.8759	-1.0160	24.02	-0.20	-0.050			
0.2701	17288.63	3.8750	3.8750	-1.0182	24.01	-0.21	-0.050			
0.2712	17353.89	3.8740	3.8740	-1.0202	24.02	-0.20	-0.050			
0.2722	17419.56	3.8730	3.8730	-1.0213	24.02	-0.20	-0.050			
0.2732	17484.82	3.8720	3.8720	-1.0218	24.03	-0.19	-0.050			
0.2742	17550.49	3.8710	3.8710	-1.0223	24.04	-0.18	-0.050			
0.2752	17615.73	3.8700	3.8699	-1.0231	24.04	-0.18	-0.050			
0.2763	17681.31	3.8690	3.8690	-1.0243	24.05	-0.17	-0.050			
0.2773	17747.06	3.8680	3.8680	-1.0246	24.06	-0.16	-0.050			
0.2783	17812.72	3.8670	3.8670	-1.0257	24.08	-0.14	-0.050			
0.2793	17878.32	3.8660	3.8660	-1.0272	24.08	-0.14	-0.050			
0.2804	17943.47	3.8650	3.8650	-1.0275	24.10	-0.12	-0.050	0.400	0.484	
0.2814	18009.20	3.8640	3.8641	-1.0296	24.11	-0.11	-0.050			
0.2824	18075.05	3.8630	3.8630	-1.0307	24.12	-0.10	-0.050			
0.2835	18141.14	3.8620	3.8619	-1.0316	24.13	-0.09	-0.050			
0.2845	18207.32	3.8610	3.8610	-1.0330	24.14	-0.08	-0.050			
0.2855	18273.62	3.8600	3.8601	-1.0346	24.14	-0.08	-0.050			
0.2866	18339.97	3.8590	3.8589	-1.0353	24.16	-0.06	-0.050			
0.2876	18406.38	3.8580	3.8579	-1.0364	24.16	-0.06	-0.050			
0.2886	18472.80	3.8570	3.8569	-1.0369	24.18	-0.04	-0.050			
0.2897	18539.06	3.8560	3.8560	-1.0375	24.18	-0.04	-0.050			
0.2907	18605.60	3.8550	3.8550	-1.0380	24.18	-0.04	-0.050			
0.2918	18672.09	3.8540	3.8540	-1.0399	24.18	-0.04	-0.050			
0.2928	18738.53	3.8530	3.8529	-1.0421	24.17	-0.05	-0.050			
0.2938	18805.31	3.8520	3.8520	-1.0432	24.17	-0.05	-0.050			
0.2949	18872.23	3.8510	3.8509	-1.0442	24.17	-0.05	-0.050			
0.2959	18939.01	3.8500	3.8499	-1.0452	24.16	-0.06	-0.050			
0.2970	19005.79	3.8490	3.8489	-1.0464	24.16	-0.06	-0.050			
0.2980	19072.69	3.8480	3.8481	-1.0475	24.16	-0.06	-0.050			
0.2991	19139.43	3.8470	3.8470	-1.0490	24.15	-0.07	-0.050			
0.3001	19206.44	3.8460	3.8460	-1.0501	24.16	-0.06	-0.050	0.481	0.519	
0.3012	19273.82	3.8450	3.8450	-1.0512	24.15	-0.07	-0.050			
0.3022	19341.43	3.8440	3.8440	-1.0519	24.16	-0.06	-0.050			
0.3033	19409.18	3.8430	3.8430	-1.0537	24.14	-0.08	-0.050			
0.3043	19476.62	3.8420	3.8420	-1.0549	24.14	-0.08	-0.050			
0.3054	19544.26	3.8410	3.8409	-1.0562	24.14	-0.08	-0.050			
0.3064	19611.92	3.8400	3.8400	-1.0576	24.14	-0.08	-0.050			
0.3075	19679.61	3.8390	3.8390	-1.0589	24.14	-0.08	-0.050			
0.3086	19747.49	3.8380	3.8380	-1.0601	24.14	-0.08	-0.050			
0.3096	19815.31	3.8370	3.8370	-1.0616	24.14	-0.08	-0.050			
0.3107	19883.13	3.8360	3.8361	-1.0627	24.14	-0.08	-0.050			
0.3117	19951.01	3.8350	3.8350	-1.0642	24.14	-0.08	-0.050			
0.3128	20018.71	3.8340	3.8338	-1.0653	24.14	-0.08	-0.050			
0.3139	20086.65	3.8330	3.8331	-1.0677	24.14	-0.08	-0.050			
0.3149	20155.17	3.8320	3.8320	-1.0700	24.14	-0.08	-0.050			
0.3160	20223.68	3.8310	3.8310	-1.0725	24.14	-0.08	-0.050			
0.3171	20292.17	3.8300	3.8300	-1.0740	24.14	-0.08	-0.050			
0.3181	20361.34	3.8290	3.8290	-1.0753	24.14	-0.08	-0.050			
0.3192	20430.27	3.8280	3.8280	-1.0767	24.14	-0.08	-0.050			
0.3203	20499.33	3.8270	3.8270	-1.0782	24.14	-0.08	-0.050	0.350	0.512	
0.3214	20568.90	3.8260	3.8259	-1.0804	24.15	-0.07	-0.050			
0.3225	20638.20	3.8250	3.8251	-1.0827	24.16	-0.06	-0.050			
0.3236	20707.68	3.8240	3.8241	-1.0839	24.16	-0.06	-0.050			
0.3246	20776.94	3.8230	3.8231	-1.0851	24.16	-0.06	-0.050			
0.3257	20846.83	3.8220	3.8220	-1.0848	24.17	-0.05	-0.050			
0.3268	20916.11	3.8210	3.8210	-1.0864	24.17	-0.05	-0.050			
0.3279	20985.52	3.8200	3.8201	-1.0879	24.18	-0.04	-0.050			
0.3290	21055.37	3.8190	3.8189	-1.0878	24.18	-0.04	-0.050			
0.3301	21124.98	3.8180	3.8180	-1.0895	24.20	-0.02	-0.050			
0.3312	21194.64	3.8170	3.8170	-1.0899	24.20	-0.02	-0.050			
0.3323	21264.06	3.8160	3.8160	-1.0914	24.21	-0.01	-0.050			
0.3333	21333.78	3.8150	3.8150	-1.0923	24.22	0.00	-0.050			
0.3344	21403.52	3.8140	3.8140	-1.0938	24.22	0.00	-0.050			
0.3355	21473.63	3.8130	3.8131	-1.0947	24.23	0.01	-0.050			
0.3366	21543.83	3.8120	3.8120	-1.0969	24.24	0.02	-0.050			
0.3377	21613.95	3.8110	3.8110	-1.0987	24.26	0.04	-0.050			
0.3388	21684.46	3.8100	3.8101	-1.1010	24.26	0.04	-0.050			
0.3399	21755.17	3.8090	3.8090	-1.1031	24.28	0.06	-0.050	0.480	0.539	
0.3410	21825.51	3.8080	3.8080	-1.1046	24.28	0.06	-0.050			
0.3421	21896.32	3.8070	3.8069	-1.1059	24.28	0.06	-0.050			
0.3432	21967.26	3.8060	3.8061	-1.1072	24.29	0.07	-0.050			
0.3443	22037.98	3.8050	3.8050	-1.1089	24.29	0.07	-0.050			
0.3455	22109.31	3.8040	3.8040	-1.1092	24.30	0.08	-0.050			
0.3466	22180.51	3.8030	3.8030	-1.1117	24.30	0.08	-0.050			
0.3477	22252.14	3.8020	3.8020	-1.1131	24.31	0.09	-0.050			
0.3488	22323.02	3.8010	3.8010	-1.1130	24.32	0.10	-0.050			
0.3499	22394.69	3.8000	3.8000	-1.1141	24.33	0.11	-0.050			
0.3510	22466.36	3.7990	3.7990	-1.1153	24.32	0.10	-0.050			
0.3522	22537.78	3.7980	3.7981	-1.1147	24.34	0.12	-0.050			
0.3533	22609.52	3.7970	3.7970	-1.1147	24.34	0.12	-0.050			
0.3544	22680.82	3.7960	3.7959	-1.1140	24.34	0.12	-0.050			
0.3555	22752.27	3.7950	3.7950	-1.1136	24.34	0.12	-0.050			
0.3566	22823.82	3.7940	3.7940	-1.1130	24.34	0.12	-0.050			
0.3577	22895.25	3.7930	3.7930	-1.1123	24.34	0.12	-0.050			
0.3588	22966.20	3.7920	3.7919	-1.1111	24.34	0.12	-0.050			
0.3600	23037.47	3.7910	3.7910	-1.1093	24.34	0.12	-0.050	0.337	0.462	
0.3611	23108.66	3.7900	3.7900	-1.1075	24.34	0.12	-0.050			
0.3622	23179.58	3.7890	3.7890	-1.1059	24.34	0.12	-0.050			
0.3633	23250.63	3.7880	3.7880	-1.1027	24.34	0.12	-0.050			
0.3644	23321.47	3.7870	3.7870	-1.1012	24.34	0.12	-0.050			
0.3655	23392.05	3.7860	3.7860	-1.0979	24.33	0.11	-0.050			
0.3666	23462.36	3.7850	3.7850	-1.0941	24.32	0.10	-0.050			
0.3677	23532.86	3.7840	3.7839	-1.0905	24.31	0.09	-0.050			
0.3688	23602.42	3.7830	3.7830	-1.0859	24.31	0.09	-0.050			
0.3699	23672.27	3.7820	3.7821	-1.0809	24.30	0.08	-0.050			
0.3710	23741.74	3.7810	3.7810	-1.0756	24.29	0.07	-0.050			
0.3720	23810.83	3.7800	3.7800	-1.0702	24.28	0.06	-0.050			
0.3731	23879.49	3.7790	3.7790	-1.0640	24.29	0.07	-0.050			
0.3742	23947.69	3.7780	3.7779	-1.0584	24.28	0.06	-0.050			
0.3752	24015.59	3.7770	3.7771	-1.0515	24.26	0.04	-0.050			
0.3763	24082.73	3.7760	3.7759	-1.0437	24.26	0.04	-0.050			
0.3773	24149.78	3.7750	3.7751	-1.0356	24.24	0.02	-0.050			
0.3784	24216.07	3.7740	3.7740	-1.0274	24.23	0.01	-0.050			
0.3794	24281.66	3.7730	3.7730	-1.0178	24.22	0.00	-0.050			
0.3804	24347.01	3.7720	3.7720	-1.0082	24.22	-0.00	-0.050	0.384	0.510	
0.3814	24411.77	3.7710	3.7710	-0.9991	24.21	-0.01	-0.050			
0.3824	24475.65	3.7700	3.7700	-0.9890	24.20	-0.02	-0.050			
0.3834	24538.95	3.7690	3.7690	-0.9771	24.18	-0.04	-0.050			
0.3844	24601.77	3.7680	3.7680	-0.9660	24.18	-0.04	-0.050			
0.3854	24663.25	3.7670	3.7670	-0.9540	24.17	-0.05	-0.050			
0.3863	24724.31	3.7660	3.7660	-0.9418	24.16	-0.06	-0.050			
0.3873	24784.66	3.7650	3.7650	-0.9290	24.15	-0.07	-0.050			
0.3882	24843.90	3.7640	3.7640	-0.9165	24.14	-0.08	-0.050			
0.3891	24902.15	3.7630	3.7630	-0.9035	24.14	-0.08	-0.050			
0.3900	24959.73	3.7620	3.7619	-0.8908	24.13	-0.09	-0.050			
0.3909	25016.20	3.7610	3.7610	-0.8775	24.12	-0.10	-0.050			
0.3917	25071.90	3.7600	3.7600	-0.8642	24.12	-0.10	-0.050			
0.3926	25126.43	3.7590	3.7590	-0.8509	24.10	-0.12	-0.050			
0.3934	25180.40	3.7580	3.7580	-0.8380	24.10	-0.12	-0.050			
0.3943	25233.50	3.7570	3.7570	-0.8247	24.08	-0.14	-0.050			
0.3951	25285.80	3.7560	3.7560	-0.8115	24.08	-0.14	-0.050			
0.3959	25337.03	3.7550	3.7549	-0.8003	24.08	-0.14	-0.050			
0.3967	25387.79	3.7540	3.7540	-0.7883	24.07	-0.15	-0.050			
0.3975	25437.38	3.7530	3.7530	-0.7759	24.06	-0.16	-0.050			
0.3982	25486.46	3.7520	3.7521	-0.7652	24.07	-0.15	-0.050			
0.3990	25534.44	3.7510	3.7510	-0.7539	24.07	-0.15	-0.050			
0.3997	25582.08	3.7500	3.7500	-0.7442	24.06	-0.16	-0.050			
0.4005	25629.04	3.7490	3.7490	-0.7350	24.06	-0.16	-0.050	0.223	0.523	
0.4012	25675.55	3.7480	3.7480	-0.7267	24.06	-0.16	-0.050			
0.4019	25721.22	3.7470	3.7469	-0.7182	24.06	-0.16	-0.050			
0.4026	25766.49	3.7460	3.7460	-0.7099	24.07	-0.15	-0.050			
0.4033	25811.03	3.7450	3.7450	-0.7027	24.08	-0.14	-0.050			
0.4040	25854.67	3.7440	3.7441	-0.6977	24.08	-0.14	-0.050			
0.4047	25898.39	3.7430	3.7430	-0.6931	24.07	-0.15	-0.050			
0.4053	25941.69	3.7420	3.7420	-0.6883	24.08	-0.14	-0.050			
0.4060	25985.08	3.7410	3.7410	-0.6853	24.08	-0.14	-0.050			
0.4067	26028.26	3.7400	3.7400	-0.6827	24.09	-0.13	-0.050			
0.4074	26071.40	3.7390	3.7390	-0.6811	24.10	-0.12	-0.050			
0.4080	26114.49	3.7380	3.7380	-0.6804	24.10	-0.12	-0.050			
0.4087	26157.60	3.7370	3.7370	-0.6809	24.10	-0.12	-0.050			
0.4094	26200.72	3.7360	3.7359	-0.6819	24.11	-0.11	-0.050			
0.4100	26243.18	3.7350	3.7350	-0.6829	24.12	-0.10	-0.050			
0.4107	26286.31	3.7340	3.7340	-0.6856	24.12	-0.10	-0.050			
0.4114	26329.86	3.7330	3.7330	-0.6899	24.13	-0.09	-0.050			
0.4121	26373.54	3.7320	3.7320	-0.6939	24.14	-0.08	-0.050			
0.4128	26417.41	3.7310	3.7310	-0.6991	24.14	-0.08	-0.050			
0.4135	26461.87	3.7300	3.7300	-0.7049	24.14	-0.08	-0.050			
0.4142	26506.72	3.7290	3.7290	-0.7115	24.15	-0.07	-0.050			
0.4149	26551.51	3.7280	3.7281	-0.7204	24.15	-0.07	-0.050			
0.4156	26597.23	3.7270	3.7270	-0.7294	24.15	-0.07	-0.050			
0.4163	26643.18	3.7260	3.7260	-0.7403	24.16	-0.06	-0.050			
0.4170	26690.13	3.7250	3.7250	-0.7514	24.16	-0.06	-0.050			
0.4178	26737.30	3.7240	3.7239	-0.7615	24.18	-0.04	-0.050			
0.4185	26785.53	3.7230	3.7230	-0.7746	24.19	-0.03	-0.050			
0.4193	26835.14	3.7220	3.7220	-0.7887	24.18	-0.04	-0.050			
0.4201	26885.31	3.7210	3.7210	-0.8050	24.18	-0.04	-0.050	0.473	0.536	
0.4209	26936.45	3.7200	3.7200	-0.8222	24.18	-0.04	-0.050			
0.4217	26989.10	3.7190	3.7189	-0.8394	24.18	-0.04	-0.050			
0.4225	27042.57	3.7180	3.7180	-0.8583	24.18	-0.04	-0.050			
0.4234	27097.39	3.7170	3.7170	-0.8780	24.18	-0.04	-0.050			
0.4243	27153.44	3.7160	3.7159	-0.8987	24.16	-0.06	-0.050			
0.4252	27210.91	3.7150	3.7151	-0.9189	24.16	-0.06	-0.050			
0.4261	27270.18	3.7140	3.7140	-0.9407	24.16	-0.06	-0.050			
0.4270	27330.64	3.7130	3.7130	-0.9631	24.16	-0.06	-0.050			
0.4280	27392.74	3.7120	3.7120	-0.9865	24.16	-0.06	-0.050			
0.4290	27455.91	3.7110	3.7110	-1.0125	24.16	-0.06	-0.050			
0.4300	27521.05	3.7100	3.7100	-1.0375	24.16	-0.06	-0.050			
0.4311	27587.88	3.7090	3.7090	-1.0630	24.15	-0.07	-0.050			
0.4321	27656.13	3.7080	3.7080	-1.0876	24.15	-0.07	-0.050			
0.4332	27726.26	3.7070	3.7070	-1.1149	24.14	-0.08	-0.050			
0.4343	27797.91	3.7060	3.7060	-1.1424	24.14	-0.08	-0.050			
0.4355	27871.50	3.7050	3.7051	-1.1703	24.14	-0.08	-0.050			
0.4367	27947.41	3.7040	3.7040	-1.1984	24.14	-0.08	-0.050			
0.4379	28025.05	3.7030	3.7029	-1.2262	24.12	-0.10	-0.050			
0.4391	28104.58	3.7020	3.7020	-1.2531	24.12	-0.10	-0.050			
0.4404	28185.32	3.7010	3.7010	-1.2814	24.12	-0.10	-0.050	0.311	0.537	
0.4417	28268.26	3.7000	3.7000	-1.3098	24.12	-0.10	-0.050			
0.4430	28353.05	3.6990	3.6990	-1.3380	24.11	-0.11	-0.050			
0.4444	28439.74	3.6980	3.6980	-1.3663	24.11	-0.11	-0.050			
0.4458	28528.23	3.6970	3.6970	-1.3947	24.11	-0.11	-0.050			
0.4472	28618.80	3.6960	3.6960	-1.4223	24.11	-0.11	-0.050			
0.4486	28711.36	3.6950	3.6950	-1.4491	24.11	-0.11	-0.050			
0.4501	28805.37	3.6940	3.6939	-1.4746	24.10	-0.12	-0.050			
0.4516	28900.93	3.6930	3.6929	-1.4999	24.10	-0.12	-0.050			
0.4531	28997.66	3.6920	3.6920	-1.5262	24.11	-0.11	-0.050			
0.4546	29096.24	3.6910	3.6911	-1.5513	24.10	-0.12	-0.050			
0.4562	29196.67	3.6900	3.6900	-1.5772	24.10	-0.12	-0.050			
0.4578	29298.76	3.6890	3.6890	-1.6016	24.10	-0.12	-0.050			
0.4594	29402.36	3.6880	3.6880	-1.6251	24.10	-0.12	-0.050			
0.4610	29507.05	3.6870	3.6870	-1.6489	24.09	-0.13	-0.050	0.376	0.499	
0.4627	29613.27	3.6860	3.6860	-1.6748	24.08	-0.14	-0.050			
0.4644	29721.28	3.6850	3.6851	-1.6987	24.08	-0.14	-0.050			
0.4661	29830.65	3.6840	3.6840	-1.7244	24.08	-0.14	-0.050			
0.4678	29941.53	3.6830	3.6830	-1.7492	24.08	-0.14	-0.050			
0.4696	30053.79	3.6820	3.6821	-1.7734	24.09	-0.13	-0.050			
0.4714	30167.84	3.6810	3.6810	-1.7971	24.10	-0.12	-0.050			
0.4732	30283.60	3.6800	3.6800	-1.8232	24.10	-0.12	-0.050			
0.4750	30400.88	3.6790	3.6790	-1.8486	24.12	-0.10	-0.050			
0.4769	30520.05	3.6780	3.6780	-1.8747	24.14	-0.08	-0.050			
0.4788	30640.77	3.6770	3.6770	-1.9008	24.14	-0.08	-0.050			
0.4807	30763.33	3.6760	3.6760	-1.9279	24.15	-0.07	-0.050	0.488	0.567	
0.4826	30887.44	3.6750	3.6749	-1.9537	24.16	-0.06	-0.050			
0.4846	31013.48	3.6740	3.6740	-1.9788	24.16	-0.06	-0.050			
0.4866	31140.90	3.6730	3.6730	-2.0049	24.18	-0.04	-0.050			
0.4886	31270.24	3.6720	3.6720	-2.0301	24.18	-0.04	-0.050			
0.4906	31400.96	3.6710	3.6710	-2.0577	24.18	-0.04	-0.050			
0.4927	31533.30	3.6700	3.6700	-2.0854	24.16	-0.06	-0.050			
0.4948	31667.71	3.6690	3.6690	-2.1120	24.16	-0.06	-0.050			
0.4969	31803.57	3.6680	3.6679	-2.1377	24.14	-0.08	-0.050			
0.4991	31941.08	3.6670	3.6671	-2.1636	24.13	-0.09	-0.050			
0.5012	32079.88	3.6660	3.6661	-2.1914	24.12	-0.10	-0.050			
0.5035	32220.88	3.6650	3.6650	-2.2189	24.10	-0.12	-0.050			
0.5057	32363.47	3.6640	3.6639	-2.2457	24.09	-0.13	-0.050			
0.5079	32508.07	3.6630	3.6630	-2.2740	24.07	-0.15	-0.050			
0.5102	32654.25	3.6620	3.6620	-2.3036	24.06	-0.16	-0.050			
0.5125	32801.96	3.6610	3.6611	-2.3325	24.03	-0.19	-0.050			
0.5149	32951.60	3.6600	3.6600	-2.3618	24.01	-0.21	-0.050			
0.5172	33103.31	3.6590	3.6590	-2.3927	24.00	-0.22	-0.050			
0.5196	33256.34	3.6580	3.6580	-2.4273	23.98	-0.24	-0.050	0.414	0.577	
0.5221	33411.57	3.6570	3.6570	-2.4619	23.96	-0.26	-0.050			
0.5245	33569.80	3.6560	3.6561	-2.4957	23.95	-0.27	-0.050			
0.5270	33729.69	3.6550	3.6550	-2.5320	23.94	-0.28	-0.050			
0.5296	33892.91	3.6540	3.6539	-2.5684	23.93	-0.29	-0.050			
0.5322	34057.89	3.6530	3.6530	-2.6043	23.96	-0.26	-0.050			
0.5348	34224.99	3.6520	3.6520	-2.6433	23.98	-0.24	-0.050			
0.5374	34394.35	3.6510	3.6510	-2.6826	24.02	-0.20	-0.050			
0.5401	34567.01	3.6500	3.6500	-2.7213	24.06	-0.16	-0.050	0.382	0.560	
0.5429	34742.83	3.6490	3.6489	-2.7613	24.10	-0.12	-0.050			
0.5456	34920.95	3.6480	3.6480	-2.8000	24.15	-0.07	-0.050			
0.5485	35101.62	3.6470	3.6470	-2.8371	24.18	-0.04	-0.050			
0.5513	35285.32	3.6460	3.6460	-2.8754	24.21	-0.01	-0.050			
0.5542	35471.55	3.6450	3.6450	-2.9102	24.23	0.01	-0.050			
0.5572	35659.63	3.6440	3.6440	-2.9466	24.24	0.02	-0.050			
0.5602	35850.05	3.6430	3.6430	-2.9810	24.24	0.02	-0.050			
0.5632	36042.54	3.6420	3.6419	-3.0129	24.23	0.01	-0.050			
0.5662	36236.26	3.6410	3.6410	-3.0455	24.24	0.02	-0.050			
0.5692	36431.84	3.6400	3.6400	-3.0773	24.22	0.00	-0.050			
0.5723	36630.30	3.6390	3.6390	-3.1099	24.20	-0.02	-0.050			
0.5755	36830.63	3.6380	3.6380	-3.1435	24.19	-0.03	-0.050			
0.5786	37032.92	3.6370	3.6370	-3.1730	24.17	-0.05	-0.050			
0.5818	37236.60	3.6360	3.6360	-3.2042	24.16	-0.06	-0.050	0.292	0.527	
0.5850	37442.12	3.6350	3.6350	-3.2358	24.15	-0.07	-0.050			
0.5883	37650.82	3.6340	3.6340	-3.2666	24.14	-0.08	-0.050			
0.5916	37860.89	3.6330	3.6330	-3.2990	24.12	-0.10	-0.050			
0.5949	38073.03	3.6320	3.6320	-3.3318	24.11	-0.11	-0.050			
0.5983	38288.48	3.6310	3.6310	-3.3591	24.11	-0.11	-0.050			
0.6016	38505.14	3.6300	3.6300	-3.3831	24.12	-0.10	-0.050	0.254	0.534	
0.6051	38723.75	3.6290	3.6291	-3.4072	24.14	-0.08	-0.050			
0.6085	38943.60	3.6280	3.6281	-3.4289	24.14	-0.08	-0.050			
0.6120	39164.90	3.6270	3.6270	-3.4471	24.16	-0.06	-0.050			
0.6154	39386.51	3.6260	3.6260	-3.4622	24.16	-0.06	-0.050			
0.6189	39609.96	3.6250	3.6250	-3.4724	24.16	-0.06	-0.050	0.280	0.545	
0.6224	39834.08	3.6240	3.6240	-3.4842	24.14	-0.08	-0.050			
0.6259	40058.02	3.6230	3.6230	-3.4905	24.10	-0.12	-0.050			
0.6294	40282.51	3.6220	3.6220	-3.4937	24.08	-0.14	-0.050			
0.6329	40506.83	3.6210	3.6211	-3.4917	24.06	-0.16	-0.050			
0.6364	40732.33	3.6200	3.6199	-3.4863	24.04	-0.18	-0.050			
0.6399	40956.02	3.6190	3.6190	-3.4772	24.02	-0.20	-0.050			
0.6434	41179.60	3.6180	3.6180	-3.4660	24.01	-0.21	-0.050			
0.6469	41403.24	3.6170	3.6170	-3.4544	24.00	-0.22	-0.050			
0.6504	41624.73	3.6160	3.6161	-3.4348	23.98	-0.24	-0.050			
0.6538	41845.74	3.6150	3.6150	-3.4106	23.95	-0.27	-0.050			
0.6573	42065.31	3.6140	3.6139	-3.3793	23.93	-0.29	-0.050			
0.6607	42282.69	3.6130	3.6130	-3.3424	23.92	-0.30	-0.050	0.381	0.512	
0.6640	42497.57	3.6120	3.6120	-3.3020	23.94	-0.28	-0.050			
0.6674	42710.93	3.6110	3.6110	-3.2565	23.97	-0.25	-0.050			
0.6706	42920.08	3.6100	3.6100	-3.1993	23.99	-0.23	-0.050			
0.6739	43126.47	3.6090	3.6090	-3.1380	24.02	-0.20	-0.050			
0.6770	43328.68	3.6080	3.6080	-3.0725	24.04	-0.18	-0.050			
0.6801	43525.21	3.6070	3.6070	-3.0022	24.06	-0.16	-0.050	0.442	0.577	
0.6831	43716.39	3.6060	3.6060	-2.9288	24.08	-0.14	-0.050			
0.6860	43901.09	3.6050	3.6050	-2.8524	24.08	-0.14	-0.050			
0.6887	44079.77	3.6040	3.6040	-2.7737	24.08	-0.14	-0.050			
0.6914	44251.60	3.6030	3.6030	-2.6998	24.09	-0.13	-0.050			
0.6940	44418.12	3.6020	3.6021	-2.6283	24.10	-0.12	-0.050			
0.6966	44579.49	3.6010	3.6011	-2.5606	24.08	-0.14	-0.050			
0.6991	44742.51	3.6000	3.6000	-2.4967	24.08	-0.14	-0.050			
0.7015	44895.41	3.5990	3.5990	-2.4407	24.07	-0.15	-0.050	0.302	0.538	
0.7038	45045.28	3.5980	3.5980	-2.3884	24.08	-0.14	-0.050			
0.7061	45191.21	3.5970	3.5970	-2.3422	24.08	-0.14	-0.050			
0.7083	45333.24	3.5960	3.5960	-2.3040	24.09	-0.13	-0.050			
0.7106	45475.31	3.5950	3.5950	-2.2710	24.09	-0.13	-0.050			
0.7127	45615.39	3.5940	3.5940	-2.2414	24.08	-0.14	-0.050			
0.7149	45755.51	3.5930	3.5930	-2.2173	24.10	-0.12	-0.050			
0.7171	45894.57	3.5920	3.5921	-2.1946	24.10	-0.12	-0.050			
0.7193	46034.00	3.5910	3.5910	-2.1752	24.10	-0.12	-0.050			
0.7215	46173.23	3.5900	3.5900	-2.1581	24.12	-0.10	-0.050	0.455	0.585	
0.7236	46312.03	3.5890	3.5890	-2.1393	24.12	-0.10	-0.050			
0.7258	46449.69	3.5880	3.5880	-2.1197	24.14	-0.08	-0.050			
0.7279	46586.38	3.5870	3.5870	-2.0997	24.14	-0.08	-0.050			
0.7300	46721.97	3.5860	3.5860	-2.0792	24.16	-0.06	-0.050			
0.7321	46856.08	3.5850	3.5849	-2.0569	24.18	-0.04	-0.050			
0.7342	46988.36	3.5840	3.5840	-2.0308	24.20	-0.02	-0.050			
0.7362	47118.16	3.5830	3.5830	-2.0038	24.20	-0.02	-0.050			
0.7382	47245.87	3.5820	3.5820	-1.9749	24.22	0.00	-0.050			
0.7402	47371.99	3.5810	3.5810	-1.9473	24.24	0.02	-0.050	0.461	0.601	
0.7421	47495.78	3.5800	3.5800	-1.9177	24.25	0.03	-0.050			
0.7440	47617.09	3.5790	3.5790	-1.8873	24.28	0.06	-0.050			
0.7459	47736.08	3.5780	3.5780	-1.8573	24.30	0.08	-0.050			
0.7477	47853.23	3.5770	3.5770	-1.8287	24.30	0.08	-0.050			
0.7495	47968.68	3.5760	3.5759	-1.8018	24.32	0.10	-0.050			
0.7513	48082.70	3.5750	3.5751	-1.7751	24.33	0.11	-0.050			
0.7530	48194.51	3.5740	3.5739	-1.7502	24.34	0.12	-0.050			
0.7548	48304.19	3.5730	3.5730	-1.7278	24.34	0.12	-0.050			
0.7565	48413.23	3.5720	3.5720	-1.7075	24.34	0.12	-0.050			
0.7581	48520.27	3.5710	3.5710	-1.6899	24.34	0.12	-0.050			
0.7598	48626.37	3.5700	3.5700	-1.6730	24.34	0.12	-0.050	0.293	0.540	
0.7614	48730.70	3.5690	3.5690	-1.6608	24.34	0.12	-0.050			
0.7630	48833.94	3.5680	3.5680	-1.6502	24.34	0.12	-0.050			
0.7646	48937.16	3.5670	3.5670	-1.6408	24.33	0.11	-0.050			
0.7662	49039.67	3.5660	3.5659	-1.6365	24.32	0.10	-0.050			
0.7678	49141.89	3.5650	3.5649	-1.6342	24.32	0.10	-0.050			
0.7695	49245.03	3.5640	3.5640	-1.6354	24.32	0.10	-0.050			
0.7711	49347.31	3.5630	3.5630	-1.6386	24.30	0.08	-0.050			
0.7727	49450.58	3.5620	3.5620	-1.6428	24.29	0.07	-0.050			
0.7743	49555.38	3.5610	3.5610	-1.6477	24.28	0.06	-0.050			
0.7760	49661.09	3.5600	3.5600	-1.6542	24.28	0.06	-0.050			
0.7776	49767.84	3.5590	3.5590	-1.6591	24.27	0.05	-0.050			
0.7793	49874.88	3.5580	3.5580	-1.6642	24.26	0.04	-0.050			
0.7810	49983.01	3.5570	3.5570	-1.6669	24.26	0.04	-0.050	0.367	0.585	
0.7827	50092.11	3.5560	3.5560	-1.6687	24.23	0.01	-0.050			
0.7844	50200.57	3.5550	3.5549	-1.6687	24.22	-0.00	-0.050			
0.7861	50309.28	3.5540	3.5540	-1.6651	24.21	-0.01	-0.050			
0.7878	50418.47	3.5530	3.5530	-1.6582	24.20	-0.02	-0.050			
0.7895	50526.65	3.5520	3.5520	-1.6481	24.20	-0.02	-0.050			
0.7912	50634.60	3.5510	3.5510	-1.6346	24.20	-0.02	-0.050			
0.7928	50740.55	3.5500	3.5500	-1.6170	24.22	0.00	-0.050			
0.7945	50845.69	3.5490	3.5489	-1.5974	24.22	0.00	-0.050			
0.7961	50949.63	3.5480	3.5480	-1.5747	24.24	0.02	-0.050			
0.7977	51051.24	3.5470	3.5470	-1.5475	24.24	0.02	-0.050			
0.7992	51150.69	3.5460	3.5461	-1.5187	24.25	0.03	-0.050			
0.8007	51247.95	3.5450	3.5450	-1.4874	24.26	0.04	-0.050			
0.8022	51342.94	3.5440	3.5440	-1.4542	24.27	0.05	-0.050			
0.8037	51435.87	3.5430	3.5431	-1.4210	24.28	0.06	-0.050			
0.8051	51526.75	3.5420	3.5420	-1.3879	24.29	0.07	-0.050			
0.8065	51615.07	3.5410	3.5409	-1.3541	24.30	0.08	-0.050			
0.8078	51700.28	3.5400	3.5400	-1.3200	24.30	0.08	-0.050			
0.8091	51783.42	3.5390	3.5390	-1.2838	24.30	0.08	-0.050			
0.8104	51863.86	3.5380	3.5380	-1.2504	24.30	0.08	-0.050			
0.8116	51942.00	3.5370	3.5370	-1.2165	24.31	0.09	-0.050			
0.8128	52017.52	3.5360	3.5361	-1.1855	24.30	0.08	-0.050			
0.8139	52091.37	3.5350	3.5350	-1.1543	24.30	0.08	-0.050			
0.8151	52163.23	3.5340	3.5340	-1.1270	24.30	0.08	-0.050			
0.8161	52233.16	3.5330	3.5330	-1.0988	24.30	0.08	-0.050			
0.8172	52301.08	3.5320	3.5320	-1.0750	24.30	0.08	-0.050			
0.8182	52367.86	3.5310	3.5309	-1.0517	24.30	0.08	-0.050			
0.8193	52432.15	3.5300	3.5301	-1.0321	24.29	0.07	-0.050			
0.8203	52496.02	3.5290	3.5290	-1.0138	24.30	0.08	-0.050	0.346	0.609	
0.8212	52558.12	3.5280	3.5280	-1.0007	24.30	0.08	-0.050			
0.8222	52619.17	3.5270	3.5270	-0.9899	24.28	0.06	-0.050			
0.8231	52680.07	3.5260	3.5261	-0.9797	24.29	0.07	-0.050			
0.8241	52740.02	3.5250	3.5251	-0.9748	24.29	0.07	-0.050			
0.8250	52800.38	3.5240	3.5240	-0.9699	24.30	0.08	-0.050			
0.8259	52859.83	3.5230	3.5229	-0.9692	24.30	0.08	-0.050			
0.8269	52920.54	3.5220	3.5219	-0.9720	24.28	0.06	-0.050			
0.8278	52981.04	3.5210	3.5210	-0.9738	24.28	0.06	-0.050			
0.8288	53042.54	3.5200	3.5199	-0.9764	24.28	0.06	-0.050			
0.8298	53105.31	3.5190	3.5190	-0.9818	24.28	0.06	-0.050			
0.8308	53168.03	3.5180	3.5179	-0.9862	24.28	0.06	-0.050			
0.8317	53231.94	3.5170	3.5170	-0.9903	24.28	0.06	-0.050			
0.8328	53296.36	3.5160	3.5160	-0.9947	24.28	0.06	-0.050			
0.8338	53362.02	3.5150	3.5150	-0.9950	24.26	0.04	-0.050			
0.8348	53427.51	3.5140	3.5139	-0.9976	24.26	0.04	-0.050			
0.8358	53493.44	3.5130	3.5131	-0.9931	24.26	0.04	-0.050			
0.8369	53559.20	3.5120	3.5120	-0.9909	24.26	0.04	-0.050			
0.8379	53623.71	3.5110	3.5110	-0.9837	24.26	0.04	-0.050			
0.8389	53689.22	3.5100	3.5099	-0.9748	24.26	0.04	-0.050			
0.8399	53752.20	3.5090	3.5090	-0.9629	24.26	0.04	-0.050			
0.8409	53815.09	3.5080	3.5080	-0.9517	24.25	0.03	-0.050	0.449	0.609	
0.8418	53876.69	3.5070	3.5070	-0.9379	24.25	0.03	-0.050			
0.8428	53936.51	3.5060	3.5060	-0.9221	24.24	0.02	-0.050			
0.8437	53995.35	3.5050	3.5049	-0.9063	24.24	0.02	-0.050			
0.8446	54052.85	3.5040	3.5040	-0.8904	24.24	0.02	-0.050			
0.8454	54108.73	3.5030	3.5030	-0.8740	24.23	0.01	-0.050			
0.8463	54163.01	3.5020	3.5020	-0.8605	24.22	0.00	-0.050			
0.8471	54216.38	3.5010	3.5010	-0.8462	24.22	0.00	-0.050			
0.8480	54269.14	3.5000	3.5000	-0.8348	24.23	0.01	-0.050			
0.8487	54319.54	3.4990	3.4991	-0.8257	24.22	-0.00	-0.050			
0.8495	54370.71	3.4980	3.4980	-0.8182	24.21	-0.01	-0.050			
0.8503	54420.91	3.4970	3.4970	-0.8122	24.20	-0.02	-0.050			
0.8511	54470.24	3.4960	3.4960	-0.8142	24.20	-0.02	-0.050			
0.8519	54519.38	3.4950	3.4950	-0.8151	24.20	-0.02	-0.050			
0.8526	54567.76	3.4940	3.4940	-0.8269	24.20	-0.02	-0.050			
0.8534	54615.87	3.4930	3.4931	-0.8387	24.20	-0.02	-0.050			
0.8541	54665.38	3.4920	3.4921	-0.8603	24.19	-0.03	-0.050			
0.8549	54713.92	3.4910	3.4912	-0.8939	24.19	-0.03	-0.050			
0.8557	54763.93	3.4900	3.4902	-0.9251	24.18	-0.04	-0.050			
0.8565	54813.45	3.4890	3.4892	-0.9815	24.18	-0.04	-0.050			
0.8573	54868.66	3.4880	3.4883	-1.0448	24.19	-0.03	-0.050			
0.8582	54926.14	3.4870	3.4872	-1.1243	24.20	-0.02	-0.050			
0.8592	54986.69	3.4860	3.4863	-1.2002	24.20	-0.02	-0.050			
0.8603	55058.76	3.4850	3.4851	-1.2983	24.21	-0.01	-0.050	0.338	0.586	
0.8616	55139.57	3.4840	3.4841	-1.4039	24.21	-0.01	-0.050			
0.8630	55230.29	3.4830	3.4830	-1.5137	24.22	0.00	-0.050			
0.8645	55328.40	3.4820	3.4818	-1.6181	24.23	0.01	-0.050			
0.8662	55438.78	3.4810	3.4808	-1.7331	24.24	0.02	-0.050			
0.8681	55558.23	3.4800	3.4798	-1.8446	24.26	0.04	-0.050			
0.8701	55686.53	3.4790	3.4788	-1.9531	24.28	0.06	-0.050			
0.8722	55822.95	3.4780	3.4778	-2.0513	24.29	0.07	-0.050			
0.8745	55965.82	3.4770	3.4769	-2.1377	24.30	0.08	-0.050			
0.8768	56116.31	3.4760	3.4760	-2.2204	24.30	0.08	-0.050			
0.8792	56268.00	3.4750	3.4750	-2.2823	24.30	0.08	-0.050			
0.8817	56429.76	3.4740	3.4740	-2.3436	24.29	0.07	-0.050	0.406	0.600	
0.8842	56589.89	3.4730	3.4730	-2.3819	24.28	0.06	-0.050			
0.8867	56751.94	3.4720	3.4721	-2.3994	24.26	0.04	-0.050			
0.8893	56914.24	3.4710	3.4710	-2.4109	24.24	0.02	-0.050			
0.8918	57073.93	3.4700	3.4700	-2.4002	24.22	0.00	-0.050			
0.8943	57233.35	3.4690	3.4690	-2.3867	24.20	-0.02	-0.050			
0.8967	57389.07	3.4680	3.4680	-2.3618	24.18	-0.04	-0.050			
0.8991	57542.71	3.4670	3.4670	-2.3314	24.18	-0.04	-0.050			
0.9015	57693.35	3.4660	3.4660	-2.2952	24.16	-0.06	-0.050	0.387	0.597	
0.9038	57841.55	3.4650	3.4650	-2.2561	24.15	-0.07	-0.050			
0.9060	57986.10	3.4640	3.4640	-2.2116	24.14	-0.08	-0.050			
0.9082	58127.68	3.4630	3.4630	-2.1645	24.14	-0.08	-0.050			
0.9104	58266.00	3.4620	3.4620	-2.1151	24.12	-0.10	-0.050			
0.9125	58401.33	3.4610	3.4610	-2.0640	24.12	-0.10	-0.050			
0.9146	58533.08	3.4600	3.4600	-2.0105	24.12	-0.10	-0.050			
0.9166	58661.13	3.4590	3.4590	-1.9556	24.11	-0.11	-0.050			
0.9185	58785.51	3.4580	3.4581	-1.8985	24.12	-0.10	-0.050			
0.9204	58906.18	3.4570	3.4570	-1.8399	24.13	-0.09	-0.050	0.483	0.661	
0.9222	59023.09	3.4560	3.4560	-1.7802	24.14	-0.08	-0.050			
0.9240	59136.14	3.4550	3.4550	-1.7181	24.15	-0.07	-0.050			
0.9257	59244.82	3.4540	3.4540	-1.6550	24.17	-0.05	-0.050			
0.9273	59349.27	3.4530	3.4531	-1.5917	24.19	-0.03	-0.050			
0.9289	59449.67	3.4520	3.4520	-1.5272	24.20	-0.02	-0.050			
0.9304	59545.92	3.4510	3.4511	-1.4636	24.21	-0.01	-0.050			
0.9318	59637.60	3.4500	3.4500	-1.3987	24.22	0.00	-0.050			
0.9332	59725.10	3.4490	3.4490	-1.3337	24.24	0.02	-0.050			
0.9345	59807.65	3.4480	3.4480	-1.2705	24.24	0.02	-0.050			
0.9357	59886.41	3.4470	3.4470	-1.2079	24.25	0.03	-0.050			
0.9369	59960.58	3.4460	3.4461	-1.1460	24.24	0.02	-0.050			
0.9380	60030.93	3.4450	3.4449	-1.0862	24.26	0.04	-0.050			
0.9390	60097.46	3.4440	3.4440	-1.0293	24.26	0.04	-0.050			
0.9400	60160.40	3.4430	3.4430	-0.9692	24.25	0.03	-0.050			
0.9409	60219.10	3.4420	3.4420	-0.9163	24.25	0.03	-0.050	0.395	0.659	
0.9418	60273.31	3.4410	3.4410	-0.8650	24.25	0.03	-0.050			
0.9426	60324.92	3.4400	3.4400	-0.8182	24.24	0.02	-0.050			
0.9433	60374.17	3.4390	3.4389	-0.7681	24.24	0.02	-0.050			
0.9441	60419.45	3.4380	3.4380	-0.7271	24.24	0.02	-0.050			
0.9447	60461.83	3.4370	3.4369	-0.6887	24.24	0.02	-0.050			
0.9454	60502.98	3.4360	3.4360	-0.6475	24.24	0.02	-0.050			
0.9459	60540.54	3.4350	3.4350	-0.6150	24.24	0.02	-0.050			
0.9465	60575.60	3.4340	3.4339	-0.5838	24.24	0.02	-0.050			
0.9470	60610.98	3.4330	3.4329	-0.5527	24.24	0.02	-0.050			
0.9475	60642.52	3.4320	3.4320	-0.5270	24.24	0.02	-0.050			
0.9480	60674.46	3.4310	3.4309	-0.5008	24.24	0.02	-0.050			
0.9485	60703.72	3.4300	3.4301	-0.4806	24.24	0.02	-0.050			
0.9490	60732.98	3.4290	3.4289	-0.4588	24.24	0.02	-0.050			
0.9494	60759.14	3.4280	3.4280	-0.4399	24.24	0.02	-0.050			
0.9498	60785.98	3.4270	3.4269	-0.4217	24.24	0.02	-0.050			
0.9502	60810.88	3.4260	3.4259	-0.4076	24.24	0.02	-0.050			
0.9506	60835.84	3.4250	3.4249	-0.3924	24.24	0.02	-0.050			
0.9509	60859.24	3.4240	3.4240	-0.3810	24.25	0.03	-0.050			
0.9513	60883.25	3.4230	3.4230	-0.3694	24.25	0.03	-0.050			
0.9516	60905.00	3.4220	3.4220	-0.3596	24.26	0.04	-0.050			
0.9520	60927.05	3.4210	3.4210	-0.3487	24.26	0.04	-0.050			
0.9523	60947.79	3.4200	3.4200	-0.3405	24.26	0.04	-0.050			
0.9526	60969.34	3.4190	3.4190	-0.3329	24.26	0.04	-0.050			
0.9530	60989.40	3.4180	3.4180	-0.3262	24.26	0.04	-0.050			
0.9533	61009.53	3.4170	3.4169	-0.3185	24.26	0.04	-0.050			
0.9536	61029.30	3.4160	3.4159	-0.3139	24.26	0.04	-0.050			
0.9539	61048.70	3.4150	3.4150	-0.3073	24.27	0.05	-0.050			
0.9542	61067.72	3.4140	3.4139	-0.3013	24.28	0.06	-0.050			
0.9545	61086.59	3.4130	3.4130	-0.2978	24.28	0.06	-0.050			
0.9548	61105.07	3.4120	3.4120	-0.2927	24.28	0.06	-0.050			
0.9551	61123.50	3.4110	3.4110	-0.2895	24.28	0.06	-0.050			
0.9553	61141.59	3.4100	3.4100	-0.2853	24.28	0.06	-0.050			
0.9556	61159.75	3.4090	3.4090	-0.2821	24.28	0.06	-0.050			
0.9559	61177.50	3.4080	3.4080	-0.2791	24.28	0.06	-0.050			
0.9562	61195.26	3.4070	3.4070	-0.2760	24.28	0.06	-0.050			
0.9564	61212.57	3.4060	3.4060	-0.2736	24.28	0.06	-0.050			
0.9567	61229.99	3.4050	3.4050	-0.2709	24.28	0.06	-0.050			
0.9570	61246.98	3.4040	3.4040	-0.2678	24.28	0.06	-0.050			
0.9572	61263.86	3.4030	3.4030	-0.2660	24.29	0.07	-0.050			
0.9575	61280.63	3.4020	3.4020	-0.2634	24.30	0.08	-0.050			
0.9578	61297.35	3.4010	3.4010	-0.2616	24.30	0.08	-0.050			
0.9580	61313.86	3.4000	3.4000	-0.2592	24.30	0.08	-0.050			
0.9583	61330.30	3.3990	3.3990	-0.2576	24.30	0.08	-0.050			
0.9585	61346.57	3.3980	3.3980	-0.2555	24.30	0.08	-0.050			
0.9588	61362.87	3.3970	3.3970	-0.2539	24.30	0.08	-0.050			
0.9590	61378.99	3.3960	3.3959	-0.2523	24.30	0.08	-0.050			
0.9593	61395.09	3.3950	3.3950	-0.2507	24.30	0.08	-0.050			
0.9595	61411.09	3.3940	3.3940	-0.2492	24.30	0.08	-0.050			
0.9598	61426.82	3.3930	3.3930	-0.2478	24.31	0.09	-0.050			
0.9600	61442.64	3.3920	3.3920	-0.2465	24.32	0.10	-0.050			
0.9603	61458.29	3.3910	3.3910	-0.2450	24.32	0.10	-0.050			
0.9605	61473.85	3.3900	3.3900	-0.2440	24.32	0.10	-0.050			
0.9608	61489.43	3.3890	3.3891	-0.2428	24.32	0.10	-0.050	0.416	0.668	
0.9610	61504.95	3.3880	3.3881	-0.2415	24.32	0.10	-0.050			
0.9613	61520.37	3.3870	3.3870	-0.2403	24.32	0.10	-0.050			
0.9615	61535.72	3.3860	3.3860	-0.2391	24.33	0.11	-0.050			
0.9617	61550.93	3.3850	3.3850	-0.2381	24.33	0.11	-0.050			
0.9620	61566.13	3.3840	3.3840	-0.2370	24.33	0.11	-0.050			
0.9622	61581.14	3.3830	3.3830	-0.2357	24.33	0.11	-0.050			
0.9624	61596.26	3.3820	3.3820	-0.2344	24.34	0.12	-0.050			
0.9627	61611.21	3.3810	3.3811	-0.2332	24.34	0.12	-0.050			
0.9629	61626.10	3.3800	3.3800	-0.2321	24.34	0.12	-0.050			
0.9631	61640.95	3.3790	3.3791	-0.2313	24.34	0.12	-0.050			
0.9634	61655.72	3.3780	3.3780	-0.2302	24.34	0.12	-0.050			
0.9636	61670.36	3.3770	3.3770	-0.2292	24.34	0.12	-0.050			
0.9638	61684.99	3.3760	3.3760	-0.2281	24.35	0.13	-0.050			
0.9641	61699.55	3.3750	3.3750	-0.2271	24.35	0.13	-0.050			
0.9643	61713.99	3.3740	3.3740	-0.2262	24.36	0.14	-0.050			
0.9645	61728.42	3.3730	3.3730	-0.2252	24.36	0.14	-0.050			
0.9647	61742.79	3.3720	3.3720	-0.2242	24.36	0.14	-0.050			
0.9650	61757.16	3.3710	3.3710	-0.2230	24.36	0.14	-0.050			
0.9652	61771.33	3.3700	3.3700	-0.2218	24.36	0.14	-0.050			
0.9654	61785.49	3.3690	3.3689	-0.2208	24.36	0.14	-0.050			
0.9656	61799.58	3.3680	3.3680	-0.2197	24.36	0.14	-0.050			
0.9658	61813.61	3.3670	3.3670	-0.2187	24.36	0.14	-0.050			
0.9661	61827.58	3.3660	3.3660	-0.2178	24.36	0.14	-0.050			
0.9663	61841.47	3.3650	3.3650	-0.2172	24.37	0.15	-0.050			
0.9665	61855.34	3.3640	3.3640	-0.2163	24.37	0.15	-0.050			
0.9667	61869.15	3.3630	3.3630	-0.2153	24.38	0.16	-0.050			
0.9669	61882.82	3.3620	3.3620	-0.2144	24.38	0.16	-0.050			
0.9671	61896.51	3.3610	3.3610	-0.2135	24.38	0.16	-0.050			
0.9673	61910.15	3.3600	3.3600	-0.2126	24.39	0.17	-0.050			
0.9676	61923.74	3.3590	3.3590	-0.2120	24.39	0.17	-0.050			
0.9678	61937.28	3.3580	3.3580	-0.2112	24.39	0.17	-0.050			
0.9680	61950.65	3.3570	3.3569	-0.2101	24.39	0.17	-0.050			
0.9682	61964.21	3.3560	3.3559	-0.2090	24.40	0.18	-0.050			
0.9684	61977.56	3.3550	3.3550	-0.2081	24.40	0.18	-0.050			
0.9686	61990.82	3.3540	3.3540	-0.2072	24.40	0.18	-0.050			
0.9688	62004.01	3.3530	3.3530	-0.2064	24.40	0.18	-0.050			
0.9690	62017.19	3.3520	3.3520	-0.2056	24.40	0.18	-0.050			
0.9692	62030.32	3.3510	3.3510	-0.2048	24.40	0.18	-0.050			
0.9694	62043.40	3.3500	3.3500	-0.2040	24.40	0.18	-0.050			
0.9696	62056.45	3.3490	3.3490	-0.2031	24.40	0.18	-0.050			
0.9698	62069.55	3.3480	3.3480	-0.2025	24.40	0.18	-0.050			
0.9700	62082.48	3.3470	3.3470	-0.2015	24.40	0.18	-0.050			
0.9702	62095.25	3.3460	3.3460	-0.2010	24.40	0.18	-0.050			
0.9704	62108.05	3.3450	3.3451	-0.2001	24.41	0.19	-0.050			
0.9706	62120.82	3.3440	3.3439	-0.1993	24.41	0.19	-0.050			
0.9708	62133.46	3.3430	3.3430	-0.1988	24.42	0.20	-0.050			
0.9710	62146.00	3.3420	3.3420	-0.1977	24.42	0.20	-0.050			
0.9712	62158.64	3.3410	3.3410	-0.1971	24.42	0.20	-0.050			
0.9714	62171.33	3.3400	3.3400	-0.1963	24.42	0.20	-0.050			
0.9716	62183.85	3.3390	3.3390	-0.1956	24.42	0.20	-0.050			
0.9718	62196.35	3.3380	3.3380	-0.1949	24.42	0.20	-0.050			
0.9720	62208.80	3.3370	3.3370	-0.1943	24.42	0.20	-0.050			
0.9722	62221.23	3.3360	3.3360	-0.1935	24.42	0.20	-0.050			
0.9724	62233.60	3.3350	3.3350	-0.1928	24.43	0.21	-0.050			
0.9726	62245.91	3.3340	3.3340	-0.1921	24.43	0.21	-0.050			
0.9728	62258.38	3.3330	3.3330	-0.1917	24.43	0.21	-0.050			
0.9730	62270.62	3.3320	3.3320	-0.1908	24.43	0.21	-0.050			
0.9732	62282.81	3.3310	3.3310	-0.1900	24.43	0.21	-0.050			
0.9734	62294.86	3.3300	3.3300	-0.1894	24.43	0.21	-0.050			
0.9735	62306.91	3.3290	3.3290	-0.1885	24.43	0.21	-0.050			
0.9737	62318.95	3.3280	3.3279	-0.1878	24.43	0.21	-0.050			
0.9739	62330.94	3.3270	3.3270	-0.1871	24.43	0.21	-0.050			
0.9741	62342.80	3.3260	3.3260	-0.1868	24.43	0.21	-0.050			
0.9743	62354.73	3.3250	3.3250	-0.1862	24.43	0.21	-0.050			
0.9745	62366.63	3.3240	3.3240	-0.1855	24.43	0.21	-0.050			
0.9747	62378.46	3.3230	3.3230	-0.1844	24.43	0.21	-0.050			
0.9748	62390.24	3.3220	3.3221	-0.1837	24.43	0.21	-0.050			
0.9750	62401.98	3.3210	3.3211	-0.1831	24.43	0.21	-0.050			
0.9752	62413.63	3.3200	3.3199	-0.1824	24.43	0.21	-0.050			
0.9754	62425.33	3.3190	3.3189	-0.1817	24.44	0.22	-0.050			
0.9756	62436.94	3.3180	3.3180	-0.1811	24.44	0.22	-0.050			
0.9758	62448.51	3.3170	3.3170	-0.1805	24.44	0.22	-0.050			
0.9759	62460.15	3.3160	3.3160	-0.1800	24.45	0.23	-0.050			
0.9761	62471.65	3.3150	3.3150	-0.1793	24.45	0.23	-0.050			
0.9763	62483.10	3.3140	3.3140	-0.1786	24.45	0.23	-0.050			
0.9765	62494.54	3.3130	3.3130	-0.1779	24.45	0.23	-0.050			
0.9767	62505.84	3.3120	3.3121	-0.1774	24.45	0.23	-0.050			
0.9768	62517.17	3.3110	3.3110	-0.1767	24.45	0.23	-0.050			
0.9770	62528.50	3.3100	3.3100	-0.1761	24.45	0.23	-0.050			
0.9772	62539.75	3.3090	3.3090	-0.1754	24.45	0.23	-0.050			
0.9774	62550.92	3.3080	3.3080	-0.1748	24.45	0.23	-0.050			
0.9775	62562.09	3.3070	3.3070	-0.1741	24.45	0.23	-0.050			
0.9777	62573.09	3.3060	3.3060	-0.1733	24.45	0.23	-0.050			
0.9779	62584.17	3.3050	3.3050	-0.1727	24.45	0.23	-0.050			
0.9781	62595.20	3.3040	3.3040	-0.1721	24.45	0.23	-0.050			
0.9782	62606.10	3.3030	3.3030	-0.1713	24.46	0.24	-0.050			
0.9784	62617.04	3.3020	3.3020	-0.1708	24.46	0.24	-0.050			
0.9786	62628.00	3.3010	3.3010	-0.1702	24.46	0.24	-0.050			
0.9787	62638.88	3.3000	3.3001	-0.1696	24.46	0.24	-0.050			
0.9789	62649.86	3.2990	3.2990	-0.1693	24.46	0.24	-0.050			
0.9791	62660.67	3.2980	3.2980	-0.1687	24.45	0.23	-0.050			
0.9792	62671.39	3.2970	3.2970	-0.1682	24.45	0.23	-0.050			
0.9794	62682.10	3.2960	3.2960	-0.1676	24.45	0.23	-0.050			
0.9796	62692.81	3.2950	3.2950	-0.1670	24.45	0.23	-0.050			
0.9797	62703.48	3.2940	3.2940	-0.1664	24.45	0.23	-0.050			
0.9799	62714.10	3.2930	3.2929	-0.1659	24.46	0.24	-0.050			
0.9801	62724.68	3.2920	3.2920	-0.1653	24.46	0.24	-0.050			
0.9802	62735.24	3.2910	3.2910	-0.1648	24.46	0.24	-0.050			
0.9804	62745.77	3.2900	3.2901	-0.1642	24.46	0.24	-0.050			
0.9806	62756.27	3.2890	3.2890	-0.1637	24.46	0.24	-0.050			
0.9807	62766.69	3.2880	3.2881	-0.1630	24.46	0.24	-0.050	0.407	0.706	
0.9809	62777.11	3.2870	3.2871	-0.1625	24.46	0.24	-0.050			
0.9811	62787.49	3.2860	3.2861	-0.1620	24.46	0.24	-0.050			
0.9812	62797.90	3.2850	3.2850	-0.1615	24.46	0.24	-0.050			
0.9814	62808.22	3.2840	3.2840	-0.1609	24.46	0.24	-0.050			
0.9815	62818.50	3.2830	3.2830	-0.1603	24.47	0.25	-0.050			
0.9817	62828.74	3.2820	3.2820	-0.1598	24.47	0.25	-0.050			
0.9819	62839.11	3.2810	3.2810	-0.1590	24.47	0.25	-0.050			
0.9820	62849.26	3.2800	3.2799	-0.1583	24.47	0.25	-0.050			
0.9822	62859.37	3.2790	3.2790	-0.1576	24.47	0.25	-0.050			
0.9823	62869.43	3.2780	3.2780	-0.1569	24.47	0.25	-0.050			
0.9825	62879.38	3.2770	3.2770	-0.1566	24.47	0.25	-0.050			
0.9826	62889.38	3.2760	3.2760	-0.1560	24.47	0.25	-0.050			
0.9828	62899.35	3.2750	3.2750	-0.1553	24.47	0.25	-0.050			
0.9830	62909.27	3.2740	3.2740	-0.1547	24.47	0.25	-0.050			
0.9831	62918.96	3.2730	3.2730	-0.1542	24.47	0.25	-0.050			
0.9833	62928.82	3.2720	3.2720	-0.1538	24.47	0.25	-0.050			
0.9834	62938.65	3.2710	3.2711	-0.1533	24.47	0.25	-0.050			
0.9836	62948.44	3.2700	3.2700	-0.1528	24.47	0.25	-0.050			
0.9837	62958.15	3.2690	3.2689	-0.1521	24.47	0.25	-0.050			
0.9839	62967.87	3.2680	3.2679	-0.1517	24.47	0.25	-0.050			
0.9840	62977.56	3.2670	3.2669	-0.1513	24.47	0.25	-0.050			
0.9842	62987.23	3.2660	3.2659	-0.1508	24.47	0.25	-0.050			
0.9843	62996.90	3.2650	3.2650	-0.1501	24.47	0.25	-0.050			
0.9845	63006.49	3.2640	3.2640	-0.1497	24.47	0.25	-0.050			
0.9846	63016.06	3.2630	3.2630	-0.1492	24.47	0.25	-0.050			
0.9848	63025.59	3.2620	3.2620	-0.1488	24.47	0.25	-0.050			
0.9849	63035.14	3.2610	3.2610	-0.1484	24.47	0.25	-0.050			
0.9851	63044.60	3.2600	3.2600	-0.1479	24.47	0.25	-0.050			
0.9852	63054.05	3.2590	3.2590	-0.1475	24.47	0.25	-0.050			
0.9854	63063.47	3.2580	3.2581	-0.1470	24.47	0.25	-0.050			
0.9855	63073.04	3.2570	3.2570	-0.1468	24.47	0.25	-0.050			
0.9857	63082.30	3.2560	3.2560	-0.1464	24.47	0.25	-0.050			
0.9858	63091.65	3.2550	3.2550	-0.1459	24.47	0.25	-0.050			
0.9860	63100.97	3.2540	3.2540	-0.1454	24.47	0.25	-0.050			
0.9861	63110.13	3.2530	3.2530	-0.1447	24.47	0.25	-0.050			
0.9862	63119.38	3.2520	3.2520	-0.1442	24.47	0.25	-0.050			
0.9864	63128.60	3.2510	3.2509	-0.1438	24.47	0.25	-0.050			
0.9865	63137.79	3.2500	3.2500	-0.1434	24.48	0.26	-0.050			
0.9867	63146.87	3.2490	3.2490	-0.1429	24.48	0.26	-0.050			
0.9868	63156.00	3.2480	3.2480	-0.1425	24.48	0.26	-0.050			
0.9870	63165.21	3.2470	3.2470	-0.1419	24.48	0.26	-0.050			
0.9871	63174.28	3.2460	3.2460	-0.1415	24.48	0.26	-0.050			
0.9872	63183.38	3.2450	3.2450	-0.1412	24.48	0.26	-0.050			
0.9874	63192.40	3.2440	3.2440	-0.1407	24.48	0.26	-0.050			
0.9875	63201.39	3.2430	3.2430	-0.1402	24.48	0.26	-0.050			
0.9877	63210.38	3.2420	3.2420	-0.1397	24.48	0.26	-0.050			
0.9878	63219.30	3.2410	3.2410	-0.1391	24.48	0.26	-0.050			
0.9879	63228.29	3.2400	3.2400	-0.1388	24.48	0.26	-0.050			
0.9881	63237.16	3.2390	3.2390	-0.1382	24.48	0.26	-0.050			
0.9882	63245.85	3.2380	3.2380	-0.1380	24.48	0.26	-0.050			
0.9884	63254.67	3.2370	3.2370	-0.1376	24.48	0.26	-0.050			
0.9885	63263.39	3.2360	3.2361	-0.1369	24.48	0.26	-0.050			
0.9886	63272.14	3.2350	3.2350	-0.1365	24.48	0.26	-0.050			
0.9888	63280.87	3.2340	3.2340	-0.1361	24.48	0.26	-0.050			
0.9889	63289.55	3.2330	3.2330	-0.1357	24.48	0.26	-0.050			
0.9890	63298.23	3.2320	3.2320	-0.1353	24.49	0.27	-0.050			
0.9892	63306.78	3.2310	3.2310	-0.1347	24.49	0.27	-0.050			
0.9893	63315.40	3.2300	3.2300	-0.1344	24.49	0.27	-0.050			
0.9894	63323.99	3.2290	3.2290	-0.1340	24.49	0.27	-0.050			
0.9896	63332.62	3.2280	3.2280	-0.1334	24.49	0.27	-0.050			
0.9897	63341.15	3.2270	3.2270	-0.1330	24.49	0.27	-0.050			
0.9898	63349.65	3.2260	3.2260	-0.1326	24.49	0.27	-0.050			
0.9900	63358.12	3.2250	3.2250	-0.1322	24.49	0.27	-0.050			
0.9901	63366.56	3.2240	3.2240	-0.1318	24.49	0.27	-0.050			
0.9902	63375.01	3.2230	3.2231	-0.1312	24.49	0.27	-0.050			
0.9904	63383.49	3.2220	3.2220	-0.1310	24.49	0.27	-0.050			
0.9905	63391.86	3.2210	3.2210	-0.1305	24.49	0.27	-0.050			
0.9906	63400.20	3.2200	3.2200	-0.1300	24.49	0.27	-0.050			
0.9908	63408.50	3.2190	3.2190	-0.1295	24.49	0.27	-0.050			
0.9909	63416.78	3.2180	3.2180	-0.1292	24.49	0.27	-0.050			
0.9910	63425.03	3.2170	3.2171	-0.1287	24.49	0.27	-0.050			
0.9911	63433.25	3.2160	3.2160	-0.1282	24.49	0.27	-0.050			
0.9913	63441.45	3.2150	3.2150	-0.1277	24.50	0.28	-0.050			
0.9914	63449.61	3.2140	3.2139	-0.1272	24.50	0.28	-0.050			
0.9915	63457.57	3.2130	3.2130	-0.1267	24.50	0.28	-0.050			
0.9917	63465.67	3.2120	3.2120	-0.1263	24.51	0.29	-0.050			
0.9918	63473.74	3.2110	3.2110	-0.1259	24.51	0.29	-0.050			
0.9919	63481.79	3.2100	3.2100	-0.1256	24.51	0.29	-0.050			
0.9920	63489.81	3.2090	3.2090	-0.1252	24.51	0.29	-0.050			
0.9922	63497.78	3.2080	3.2080	-0.1248	24.51	0.29	-0.050			
0.9923	63505.75	3.2070	3.2071	-0.1245	24.51	0.29	-0.050			
0.9924	63513.71	3.2060	3.2060	-0.1241	24.51	0.29	-0.050			
0.9925	63521.64	3.2050	3.2050	-0.1238	24.51	0.29	-0.050			
0.9926	63529.55	3.2040	3.2040	-0.1234	24.51	0.29	-0.050			
0.9928	63537.53	3.2030	3.2030	-0.1230	24.51	0.29	-0.050			
0.9929	63545.38	3.2020	3.2020	-0.1226	24.51	0.29	-0.050			
0.9930	63553.21	3.2010	3.2010	-0.1221	24.51	0.29	-0.050			
0.9931	63561.02	3.2000	3.2000	-0.1217	24.51	0.29	-0.050			
0.9933	63568.80	3.1990	3.1990	-0.1213	24.51	0.29	-0.050			
0.9934	63576.50	3.1980	3.1980	-0.1211	24.51	0.29	-0.050			
0.9935	63584.23	3.1970	3.1970	-0.1207	24.51	0.29	-0.050			
0.9936	63591.95	3.1960	3.1960	-0.1203	24.51	0.29	-0.050			
0.9937	63599.64	3.1950	3.1951	-0.1200	24.51	0.29	-0.050			
0.9939	63607.31	3.1940	3.1940	-0.1196	24.51	0.29	-0.050			
0.9940	63614.93	3.1930	3.1930	-0.1192	24.52	0.30	-0.050			
0.9941	63622.61	3.1920	3.1920	-0.1187	24.52	0.30	-0.050			
0.9942	63630.20	3.1910	3.1910	-0.1183	24.52	0.30	-0.050			
0.9943	63637.76	3.1900	3.1899	-0.1179	24.52	0.30	-0.050			
0.9945	63645.29	3.1890	3.1889	-0.1175	24.52	0.30	-0.050			
0.9946	63652.79	3.1880	3.1880	-0.1171	24.52	0.30	-0.050			
0.9947	63660.20	3.1870	3.1870	-0.1168	24.52	0.30	-0.050			
0.9948	63667.66	3.1860	3.1860	-0.1165	24.53	0.31	-0.050			
0.9949	63675.11	3.1850	3.1850	-0.1162	24.53	0.31	-0.050			
0.9950	63682.53	3.1840	3.1840	-0.1158	24.53	0.31	-0.050			
0.9952	63689.88	3.1830	3.1831	-0.1154	24.53	0.31	-0.050			
0.9953	63697.26	3.1820	3.1821	-0.1151	24.53	0.31	-0.050			
0.9954	63704.66	3.1810	3.1811	-0.1147	24.53	0.31	-0.050			
0.9955	63711.99	3.1800	3.1800	-0.1143	24.53	0.31	-0.050			
0.9956	63719.29	3.1790	3.1790	-0.1140	24.53	0.31	-0.050			
0.9957	63726.63	3.1780	3.1779	-0.1137	24.53	0.31	-0.050			
0.9958	63733.90	3.1770	3.1769	-0.1134	24.53	0.31	-0.050			
0.9960	63741.12	3.1760	3.1760	-0.1130	24.53	0.31	-0.050			
0.9961	63748.34	3.1750	3.1750	-0.1126	24.53	0.31	-0.050			
0.9962	63755.54	3.1740	3.1740	-0.1123	24.53	0.31	-0.050			
0.9963	63762.71	3.1730	3.1730	-0.1119	24.53	0.31	-0.050			
0.9964	63769.79	3.1720	3.1720	-0.1114	24.53	0.31	-0.050			
0.9965	63776.91	3.1710	3.1710	-0.1111	24.54	0.32	-0.050			
0.9966	63784.05	3.1700	3.1700	-0.1107	24.54	0.32	-0.050			
0.9967	63791.12	3.1690	3.1690	-0.1103	24.54	0.32	-0.050			
0.9968	63798.17	3.1680	3.1680	-0.1100	24.54	0.32	-0.050			
0.9970	63805.29	3.1670	3.1670	-0.1098	24.54	0.32	-0.050			
0.9971	63812.31	3.1660	3.1660	-0.1094	24.54	0.32	-0.050			
0.9972	63819.30	3.1650	3.1650	-0.1090	24.54	0.32	-0.050			
0.9973	63826.26	3.1640	3.1640	-0.1086	24.54	0.32	-0.050			
0.9974	63833.20	3.1630	3.1630	-0.1081	24.54	0.32	-0.050			
0.9975	63840.11	3.1620	3.1620	-0.1077	24.54	0.32	-0.050			
0.9976	63846.94	3.1610	3.1610	-0.1072	24.54	0.32	-0.050			
0.9977	63853.79	3.1600	3.1600	-0.1068	24.54	0.32	-0.050			
0.9978	63860.61	3.1590	3.1590	-0.1064	24.54	0.32	-0.050			
0.9979	63867.31	3.1580	3.1580	-0.1062	24.54	0.32	-0.050			
0.9980	63874.10	3.1570	3.1570	-0.1059	24.54	0.32	-0.050			
0.9981	63880.85	3.1560	3.1560	-0.1055	24.55	0.33	-0.050			
0.9982	63887.59	3.1550	3.1550	-0.1052	24.55	0.33	-0.050			
0.9983	63894.31	3.1540	3.1540	-0.1048	24.55	0.33	-0.050			
0.9985	63901.01	3.1530	3.1530	-0.1045	24.55	0.33	-0.050			
0.9986	63907.65	3.1520	3.1520	-0.1043	24.55	0.33	-0.050			
0.9987	63914.31	3.1510	3.1510	-0.1040	24.55	0.33	-0.050			
0.9988	63920.89	3.1500	3.1499	-0.1035	24.55	0.33	-0.050			
0.9989	63927.51	3.1490	3.1489	-0.1033	24.55	0.33	-0.050			
0.9990	63934.11	3.1480	3.1479	-0.1031	24.55	0.33	-0.050			
0.9991	63940.70	3.1470	3.1470	-0.1028	24.55	0.33	-0.050			
0.9992	63947.29	3.1460	3.1460	-0.1025	24.55	0.33	-0.050			
0.9993	63953.84	3.1450	3.1450	-0.1023	24.55	0.33	-0.050			
0.9994	63960.37	3.1440	3.1440	-0.1020	24.55	0.33	-0.050			
0.9995	63966.87	3.1430	3.1430	-0.1017	24.55	0.33	-0.050			
0.9996	63973.37	3.1420	3.1420	-0.1015	24.55	0.33	-0.050			
0.9997	63979.86	3.1410	3.1410	-0.1012	24.55	0.33	-0.050			
0.9998	63986.33	3.1400	3.1400	-0.1010	24.55	0.33	-0.050			
0.9999	63992.87	3.1390	3.1390	-0.1004	24.55	0.33	-0.050			
1.0000	63999.41	3.1380	3.1380	-0.1004	24.55	0.33	-0.050			
1.0001	64005.82	3.1370	3.1370	-0.1000	24.55	0.33	-0.050			
1.0002	64012.21	3.1360	3.1360	-0.0996	24.55	0.33	-0.050			
1.0003	64018.57	3.1350	3.1350	-0.0992	24.55	0.33	-0.050			
1.0004	64024.91	3.1340	3.1340	-0.0988	24.55	0.33	-0.050			
1.0005	64031.19	3.1330	3.1330	-0.0986	24.55	0.33	-0.050			
1.0006	64037.47	3.1320	3.1320	-0.0982	24.55	0.33	-0.050			
1.0007	64043.74	3.1310	3.1310	-0.0978	24.55	0.33	-0.050			
1.0008	64049.99	3.1300	3.1299	-0.0975	24.55	0.33	-0.050	0.444	0.709	
1.0009	64056.22	3.1290	3.1290	-0.0971	24.55	0.33	-0.050			
1.0010	64062.43	3.1280	3.1281	-0.0968	24.55	0.33	-0.050			
1.0011	64068.57	3.1270	3.1270	-0.0966	24.55	0.33	-0.050			
1.0012	64074.71	3.1260	3.1260	-0.0962	24.55	0.33	-0.050			
1.0013	64080.86	3.1250	3.1250	-0.0959	24.56	0.34	-0.050			
1.0014	64086.99	3.1240	3.1240	-0.0956	24.56	0.34	-0.050			
1.0015	64093.09	3.1230	3.1230	-0.0953	24.56	0.34	-0.050			
1.0015	64099.18	3.1220	3.1220	-0.0950	24.56	0.34	-0.050			
1.0016	64105.25	3.1210	3.1210	-0.0947	24.57	0.35	-0.050			
1.0017	64111.29	3.1200	3.1200	-0.0945	24.57	0.35	-0.050			
1.0018	64117.26	3.1190	3.1190	-0.0940	24.57	0.35	-0.050			
1.0019	64123.27	3.1180	3.1180	-0.0938	24.57	0.35	-0.050			
1.0020	64129.26	3.1170	3.1170	-0.0935	24.57	0.35	-0.050			
1.0021	64135.24	3.1160	3.1160	-0.0933	24.57	0.35	-0.050			
1.0022	64141.20	3.1150	3.1150	-0.0930	24.57	0.35	-0.050			
1.0023	64147.14	3.1140	3.1140	-0.0928	24.57	0.35	-0.050			
1.0024	64153.13	3.1130	3.1130	-0.0925	24.57	0.35	-0.050			
1.0025	64159.04	3.1120	3.1120	-0.0922	24.57	0.35	-0.050			
1.0026	64164.94	3.1110	3.1110	-0.0919	24.57	0.35	-0.050			
1.0027	64170.81	3.1100	3.1100	-0.0916	24.57	0.35	-0.050			
1.0028	64176.67	3.1090	3.1090	-0.0914	24.57	0.35	-0.050			
1.0029	64182.51	3.1080	3.1080	-0.0911	24.57	0.35	-0.050			
1.0029	64188.33	3.1070	3.1070	-0.0908	24.57	0.35	-0.050			
1.0030	64194.10	3.1060	3.1060	-0.0905	24.57	0.35	-0.050			
1.0031	64199.89	3.1050	3.1050	-0.0902	24.57	0.35	-0.050			
1.0032	64205.65	3.1040	3.1040	-0.0900	24.57	0.35	-0.050			
1.0033	64211.40	3.1030	3.1030	-0.0897	24.57	0.35	-0.050			
1.0034	64217.13	3.1020	3.1020	-0.0894	24.57	0.35	-0.050			
1.0035	64222.85	3.1010	3.1011	-0.0891	24.57	0.35	-0.050			
1.0036	64228.53	3.1000	3.1001	-0.0889	24.57	0.35	-0.050			
1.0037	64234.20	3.0990	3.0990	-0.0886	24.57	0.35	-0.050			
1.0037	64239.87	3.0980	3.0980	-0.0883	24.57	0.35	-0.050			
1.0038	64245.51	3.0970	3.0970	-0.0881	24.57	0.35	-0.050			
1.0039	64251.14	3.0960	3.0960	-0.0878	24.57	0.35	-0.050			
1.0040	64256.75	3.0950	3.0950	-0.0875	24.57	0.35	-0.050			
1.0041	64262.34	3.0940	3.0940	-0.0873	24.57	0.35	-0.050			
1.0042	64267.90	3.0930	3.0930	-0.0870	24.57	0.35	-0.050			
1.0043	64273.48	3.0920	3.0920	-0.0867	24.57	0.35	-0.050			
1.0044	64279.02	3.0910	3.0910	-0.0864	24.57	0.35	-0.050			
1.0044	64284.54	3.0900	3.0900	-0.0861	24.57	0.35	-0.050			
1.0045	64290.05	3.0890	3.0890	-0.0859	24.57	0.35	-0.050			
1.0046	64295.53	3.0880	3.0880	-0.0856	24.57	0.35	-0.050			
1.0047	64301.00	3.0870	3.0870	-0.0853	24.57	0.35	-0.050			
1.0048	64306.49	3.0860	3.0860	-0.0851	24.58	0.36	-0.050			
1.0049	64311.92	3.0850	3.0850	-0.0848	24.58	0.36	-0.050			
1.0050	64317.29	3.0840	3.0840	-0.0846	24.58	0.36	-0.050			
1.0050	64322.70	3.0830	3.0830	-0.0844	24.58	0.36	-0.050			
1.0051	64328.09	3.0820	3.0820	-0.0841	24.58	0.36	-0.050			
1.0052	64333.47	3.0810	3.0811	-0.0839	24.58	0.36	-0.050			
1.0053	64338.79	3.0800	3.0800	-0.0836	24.58	0.36	-0.050			
1.0054	64344.13	3.0790	3.0790	-0.0833	24.58	0.36	-0.050			
1.0055	64349.48	3.0780	3.0780	-0.0831	24.58	0.36	-0.050			
1.0055	64354.79	3.0770	3.0770	-0.0828	24.58	0.36	-0.050			
1.0056	64360.08	3.0760	3.0760	-0.0826	24.59	0.37	-0.050			
1.0057	64365.36	3.0750	3.0750	-0.0823	24.59	0.37	-0.050			
1.0058	64370.62	3.0740	3.0740	-0.0821	24.59	0.37	-0.050			
1.0059	64375.87	3.0730	3.0730	-0.0818	24.59	0.37	-0.050			
1.0060	64381.08	3.0720	3.0720	-0.0816	24.59	0.37	-0.050			
1.0060	64386.30	3.0710	3.0711	-0.0813	24.59	0.37	-0.050			
1.0061	64391.50	3.0700	3.0700	-0.0811	24.59	0.37	-0.050			
1.0062	64396.68	3.0690	3.0690	-0.0809	24.59	0.37	-0.050			
1.0063	64401.85	3.0680	3.0680	-0.0806	24.58	0.36	-0.050			
1.0064	64407.00	3.0670	3.0670	-0.0804	24.58	0.36	-0.050			
1.0064	64412.14	3.0660	3.0660	-0.0801	24.58	0.36	-0.050			
1.0065	64417.26	3.0650	3.0650	-0.0799	24.58	0.36	-0.050			
1.0066	64422.41	3.0640	3.0640	-0.0797	24.58	0.36	-0.050			
1.0067	64427.46	3.0630	3.0630	-0.0795	24.57	0.35	-0.050			
1.0068	64432.54	3.0620	3.0620	-0.0793	24.57	0.35	-0.050			
1.0068	64437.61	3.0610	3.0610	-0.0790	24.57	0.35	-0.050			
1.0069	64442.66	3.0600	3.0600	-0.0788	24.57	0.35	-0.050			
1.0070	64447.69	3.0590	3.0590	-0.0785	24.57	0.35	-0.050			
1.0071	64452.66	3.0580	3.0580	-0.0782	24.57	0.35	-0.050			
1.0072	64457.67	3.0570	3.0570	-0.0780	24.57	0.35	-0.050			
1.0072	64462.66	3.0560	3.0560	-0.0778	24.57	0.35	-0.050			
1.0073	64467.63	3.0550	3.0550	-0.0776	24.57	0.35	-0.050			
1.0074	64472.59	3.0540	3.0540	-0.0774	24.57	0.35	-0.050			
1.0075	64477.53	3.0530	3.0530	-0.0772	24.57	0.35	-0.050			
1.0075	64482.47	3.0520	3.0520	-0.0770	24.57	0.35	-0.050			
1.0076	64487.39	3.0510	3.0510	-0.0768	24.57	0.35	-0.050			
1.0077	64492.29	3.0500	3.0500	-0.0765	24.57	0.35	-0.050			
1.0078	64497.22	3.0490	3.0490	-0.0763	24.57	0.35	-0.050			
1.0078	64502.09	3.0480	3.0480	-0.0760	24.57	0.35	-0.050			
1.0079	64506.95	3.0470	3.0470	-0.0758	24.57	0.35	-0.050			
1.0080	64511.79	3.0460	3.0460	-0.0755	24.57	0.35	-0.050			
1.0081	64516.62	3.0450	3.0450	-0.0753	24.57	0.35	-0.050			
1.0081	64521.43	3.0440	3.0440	-0.0751	24.56	0.34	-0.050			
1.0082	64526.27	3.0430	3.0430	-0.0749	24.56	0.34	-0.050			
1.0083	64530.98	3.0420	3.0420	-0.0747	24.56	0.34	-0.050			
1.0084	64535.75	3.0410	3.0410	-0.0745	24.56	0.34	-0.050			
1.0084	64540.51	3.0400	3.0400	-0.0743	24.56	0.34	-0.050			
1.0085	64545.26	3.0390	3.0390	-0.0741	24.56	0.34	-0.050			
1.0086	64549.99	3.0380	3.0380	-0.0739	24.56	0.34	-0.050			
1.0087	64554.68	3.0370	3.0370	-0.0736	24.56	0.34	-0.050			
1.0087	64559.38	3.0360	3.0360	-0.0734	24.56	0.34	-0.050			
1.0088	64564.07	3.0350	3.0350	-0.0732	24.56	0.34	-0.050			
1.0089	64568.75	3.0340	3.0340	-0.0730	24.56	0.34	-0.050			
1.0090	64573.42	3.0330	3.0329	-0.0728	24.56	0.34	-0.050			
1.0090	64578.07	3.0320	3.0320	-0.0726	24.56	0.34	-0.050			
1.0091	64582.71	3.0310	3.0310	-0.0724	24.56	0.34	-0.050			
1.0092	64587.34	3.0300	3.0300	-0.0722	24.56	0.34	-0.050			
1.0092	64591.92	3.0290	3.0290	-0.0720	24.56	0.34	-0.050			
1.0093	64596.53	3.0280	3.0280	-0.0718	24.56	0.34	-0.050			
1.0094	64601.12	3.0270	3.0270	-0.0717	24.56	0.34	-0.050			
1.0095	64605.73	3.0260	3.0260	-0.0714	24.56	0.34	-0.050			
1.0095	64610.30	3.0250	3.0250	-0.0712	24.56	0.34	-0.050			
1.0096	64614.85	3.0240	3.0240	-0.0710	24.56	0.34	-0.050			
1.0097	64619.38	3.0230	3.0230	-0.0708	24.56	0.34	-0.050			
1.0097	64623.97	3.0220	3.0220	-0.0707	24.56	0.34	-0.050			
1.0098	64628.49	3.0210	3.0210	-0.0705	24.55	0.33	-0.050			
1.0099	64632.99	3.0200	3.0200	-0.0703	24.55	0.33	-0.050			
1.0100	64637.48	3.0190	3.0190	-0.0700	24.55	0.33	-0.050			
1.0100	64641.90	3.0180	3.0180	-0.0700	24.55	0.33	-0.050			
1.0101	64646.38	3.0170	3.0170	-0.0698	24.55	0.33	-0.050			
1.0102	64650.84	3.0160	3.0160	-0.0696	24.55	0.33	-0.050			
1.0102	64655.28	3.0150	3.0150	-0.0694	24.55	0.33	-0.050			
1.0103	64659.65	3.0140	3.0140	-0.0692	24.55	0.33	-0.050			
1.0104	64664.07	3.0130	3.0130	-0.0690	24.55	0.33	-0.050			
1.0104	64668.48	3.0120	3.0120	-0.0689	24.55	0.33	-0.050			
1.0105	64672.89	3.0110	3.0110	-0.0687	24.55	0.33	-0.050			
1.0106	64677.28	3.0100	3.0100	-0.0686	24.55	0.33	-0.050			
1.0107	64681.66	3.0090	3.0090	-0.0684	24.55	0.33	-0.050			
1.0107	64686.03	3.0080	3.0080	-0.0683	24.55	0.33	-0.050			
1.0108	64690.40	3.0070	3.0070	-0.0681	24.55	0.33	-0.050			
1.0109	64694.70	3.0060	3.0060	-0.0683	24.55	0.33	-0.050			
1.0109	64699.07	3.0050	3.0050	-0.0682	24.55	0.33	-0.050			
1.0110	64703.44	3.0040	3.0040	-0.0682	24.55	0.33	-0.050			
