Ah_balance (normalized)	Ah_balance (mAh)	Voltage - fit (V)	Voltage -  interpolate (V)	dQ/dV (1/V)	Temperature (°C)	Temperature - diff (°C)	Current (C)	R_DC 0ms (mOhm)	R_DC 50ms (mOhm)	R_DC 50 ms PEC (mOhm)
0.0002	13.97	4.1870	4.1871	-0.3992	25.39	0.00	-0.050			
0.0006	40.57	4.1860	4.1859	-0.4421	25.39	0.00	-0.050			
0.0011	70.45	4.1850	4.1849	-0.4806	25.39	0.00	-0.050			
0.0016	102.52	4.1840	4.1838	-0.5071	25.39	0.00	-0.050			
0.0022	137.73	4.1830	4.1832	-0.5366	25.38	-0.01	-0.050			
0.0027	172.57	4.1820	4.1813	-0.5520	25.37	-0.02	-0.050			
0.0033	208.75	4.1810	4.1810	-0.5674	25.37	-0.02	-0.050			
0.0038	245.96	4.1800	4.1799	-0.5817	25.37	-0.02	-0.050			
0.0044	283.77	4.1790	4.1793	-0.5955	25.36	-0.03	-0.050			
0.0050	322.62	4.1780	4.1779	-0.6088	25.36	-0.03	-0.050			
0.0057	361.94	4.1770	4.1773	-0.6223	25.36	-0.03	-0.050			
0.0063	402.58	4.1760	4.1760	-0.6344	25.35	-0.04	-0.050			
0.0070	446.15	4.1750	4.1746	-0.6486	25.35	-0.04	-0.050			
0.0076	488.74	4.1740	4.1740	-0.6552	25.35	-0.04	-0.050			
0.0083	532.08	4.1730	4.1730	-0.6637	25.34	-0.05	-0.050			
0.0090	575.30	4.1720	4.1718	-0.6704	25.34	-0.05	-0.050			
0.0097	620.09	4.1710	4.1709	-0.6756	25.33	-0.06	-0.050			
0.0104	663.34	4.1700	4.1699	-0.6782	25.33	-0.06	-0.050			
0.0110	706.84	4.1690	4.1691	-0.6839	25.33	-0.06	-0.050			
0.0117	751.30	4.1680	4.1683	-0.6873	25.32	-0.07	-0.050			
0.0124	794.85	4.1670	4.1670	-0.6986	25.32	-0.07	-0.050			
0.0131	840.07	4.1660	4.1662	-0.7012	25.32	-0.07	-0.050			
0.0138	886.39	4.1650	4.1651	-0.7044	25.32	-0.07	-0.050			
0.0146	931.38	4.1640	4.1638	-0.7104	25.31	-0.08	-0.050			
0.0153	976.46	4.1630	4.1630	-0.7160	25.31	-0.08	-0.050			
0.0160	1022.72	4.1620	4.1621	-0.7189	25.30	-0.09	-0.050			
0.0167	1069.86	4.1610	4.1612	-0.7219	25.30	-0.09	-0.050			
0.0174	1114.49	4.1600	4.1598	-0.7255	25.29	-0.10	-0.050			
0.0181	1161.43	4.1590	4.1591	-0.7266	25.29	-0.10	-0.050			
0.0189	1208.68	4.1580	4.1578	-0.7283	25.29	-0.10	-0.050			
0.0196	1255.75	4.1570	4.1571	-0.7306	25.29	-0.10	-0.050			
0.0204	1302.63	4.1560	4.1560	-0.7338	25.28	-0.11	-0.050	0.166	0.601	
0.0211	1350.74	4.1550	4.1550	-0.7366	25.28	-0.11	-0.050			
0.0218	1398.18	4.1540	4.1538	-0.7406	25.28	-0.11	-0.050			
0.0226	1445.88	4.1530	4.1534	-0.7431	25.28	-0.11	-0.050			
0.0233	1493.49	4.1520	4.1519	-0.7444	25.28	-0.11	-0.050			
0.0241	1541.27	4.1510	4.1510	-0.7477	25.28	-0.11	-0.050			
0.0248	1588.77	4.1500	4.1502	-0.7515	25.28	-0.11	-0.050			
0.0256	1636.70	4.1490	4.1492	-0.7497	25.27	-0.12	-0.050			
0.0263	1684.47	4.1480	4.1480	-0.7494	25.26	-0.13	-0.050			
0.0270	1730.20	4.1470	4.1469	-0.7542	25.27	-0.12	-0.050			
0.0278	1778.87	4.1460	4.1464	-0.7582	25.26	-0.13	-0.050			
0.0286	1829.05	4.1450	4.1451	-0.7643	25.26	-0.13	-0.050			
0.0293	1878.03	4.1440	4.1439	-0.7649	25.26	-0.13	-0.050			
0.0301	1927.39	4.1430	4.1431	-0.7624	25.25	-0.14	-0.050			
0.0309	1976.45	4.1420	4.1419	-0.7669	25.25	-0.14	-0.050			
0.0317	2026.72	4.1410	4.1410	-0.7694	25.25	-0.14	-0.050			
0.0325	2077.38	4.1400	4.1402	-0.7645	25.25	-0.14	-0.050			
0.0332	2126.77	4.1390	4.1389	-0.7680	25.25	-0.14	-0.050			
0.0340	2176.56	4.1380	4.1378	-0.7713	25.25	-0.14	-0.050			
0.0348	2225.37	4.1370	4.1373	-0.7723	25.25	-0.14	-0.050			
0.0355	2272.83	4.1360	4.1363	-0.7761	25.24	-0.15	-0.050			
0.0363	2322.47	4.1350	4.1347	-0.7775	25.25	-0.14	-0.050			
0.0371	2372.15	4.1340	4.1340	-0.7799	25.24	-0.15	-0.050			
0.0378	2421.70	4.1330	4.1330	-0.7797	25.24	-0.15	-0.050			
0.0386	2471.75	4.1320	4.1319	-0.7820	25.24	-0.15	-0.050			
0.0394	2520.83	4.1310	4.1311	-0.7839	25.24	-0.15	-0.050			
0.0402	2571.39	4.1300	4.1299	-0.7855	25.24	-0.15	-0.050			
0.0410	2621.94	4.1290	4.1290	-0.7852	25.24	-0.15	-0.050			
0.0418	2672.23	4.1280	4.1278	-0.7915	25.24	-0.15	-0.050			
0.0425	2721.77	4.1270	4.1273	-0.7897	25.24	-0.15	-0.050			
0.0433	2773.10	4.1260	4.1261	-0.7959	25.24	-0.15	-0.050			
0.0442	2825.70	4.1250	4.1255	-0.7990	25.24	-0.15	-0.050			
0.0450	2878.72	4.1240	4.1239	-0.7961	25.23	-0.16	-0.050			
0.0458	2930.54	4.1230	4.1229	-0.7984	25.24	-0.15	-0.050			
0.0466	2982.61	4.1220	4.1218	-0.7997	25.23	-0.16	-0.050			
0.0474	3033.03	4.1210	4.1211	-0.7984	25.23	-0.16	-0.050			
0.0482	3085.10	4.1200	4.1199	-0.7995	25.23	-0.16	-0.050			
0.0490	3135.09	4.1190	4.1188	-0.7941	25.23	-0.16	-0.050			
0.0498	3184.59	4.1180	4.1184	-0.7967	25.23	-0.16	-0.050			
0.0505	3234.69	4.1170	4.1170	-0.7972	25.24	-0.15	-0.050			
0.0513	3284.97	4.1160	4.1162	-0.7975	25.23	-0.16	-0.050			
0.0521	3335.86	4.1150	4.1147	-0.8009	25.23	-0.16	-0.050			
0.0529	3387.43	4.1140	4.1139	-0.8063	25.23	-0.16	-0.050			
0.0537	3439.50	4.1130	4.1130	-0.8062	25.22	-0.17	-0.050			
0.0545	3490.87	4.1120	4.1118	-0.8068	25.22	-0.17	-0.050			
0.0554	3542.52	4.1110	4.1109	-0.8072	25.22	-0.17	-0.050			
0.0562	3594.40	4.1100	4.1096	-0.8087	25.21	-0.18	-0.050			
0.0570	3646.79	4.1090	4.1088	-0.8114	25.22	-0.17	-0.050			
0.0578	3698.08	4.1080	4.1084	-0.8103	25.21	-0.18	-0.050			
0.0586	3750.94	4.1070	4.1072	-0.8161	25.21	-0.18	-0.050			
0.0594	3804.13	4.1060	4.1059	-0.8165	25.21	-0.18	-0.050			
0.0603	3856.92	4.1050	4.1053	-0.8169	25.21	-0.18	-0.050	0.427	0.595	
0.0611	3910.25	4.1040	4.1040	-0.8219	25.20	-0.19	-0.050			
0.0619	3963.48	4.1030	4.1028	-0.8186	25.20	-0.19	-0.050			
0.0627	4015.66	4.1020	4.1020	-0.8144	25.20	-0.19	-0.050			
0.0636	4067.53	4.1010	4.1009	-0.8148	25.21	-0.18	-0.050			
0.0644	4119.26	4.1000	4.0998	-0.8152	25.20	-0.19	-0.050			
0.0652	4171.27	4.0990	4.0991	-0.8137	25.20	-0.19	-0.050			
0.0660	4220.99	4.0980	4.0981	-0.8156	25.19	-0.20	-0.050			
0.0668	4273.49	4.0970	4.0972	-0.8196	25.20	-0.19	-0.050			
0.0676	4325.35	4.0960	4.0961	-0.8221	25.20	-0.19	-0.050			
0.0684	4377.97	4.0950	4.0950	-0.8229	25.20	-0.19	-0.050			
0.0693	4432.04	4.0940	4.0943	-0.8230	25.19	-0.20	-0.050			
0.0701	4484.41	4.0930	4.0928	-0.8257	25.19	-0.20	-0.050			
0.0709	4538.35	4.0920	4.0917	-0.8276	25.19	-0.20	-0.050			
0.0717	4590.93	4.0910	4.0907	-0.8287	25.19	-0.20	-0.050			
0.0726	4643.68	4.0900	4.0898	-0.8295	25.20	-0.19	-0.050			
0.0734	4697.81	4.0890	4.0888	-0.8288	25.19	-0.20	-0.050			
0.0742	4750.88	4.0880	4.0885	-0.8294	25.19	-0.20	-0.050			
0.0751	4804.87	4.0870	4.0871	-0.8296	25.19	-0.20	-0.050			
0.0759	4858.34	4.0860	4.0860	-0.8277	25.19	-0.20	-0.050			
0.0767	4911.47	4.0850	4.0852	-0.8309	25.19	-0.20	-0.050			
0.0776	4964.93	4.0840	4.0836	-0.8277	25.19	-0.20	-0.050			
0.0784	5018.28	4.0830	4.0833	-0.8312	25.20	-0.19	-0.050			
0.0792	5071.75	4.0820	4.0822	-0.8311	25.19	-0.20	-0.050			
0.0800	5122.25	4.0810	4.0809	-0.8317	25.19	-0.20	-0.050			
0.0808	5174.30	4.0800	4.0799	-0.8349	25.19	-0.20	-0.050			
0.0817	5227.51	4.0790	4.0790	-0.8355	25.19	-0.20	-0.050			
0.0825	5280.78	4.0780	4.0780	-0.8324	25.20	-0.19	-0.050			
0.0834	5334.60	4.0770	4.0768	-0.8338	25.19	-0.20	-0.050			
0.0842	5388.20	4.0760	4.0759	-0.8382	25.19	-0.20	-0.050			
0.0850	5442.50	4.0750	4.0753	-0.8391	25.19	-0.20	-0.050			
0.0859	5496.83	4.0740	4.0736	-0.8423	25.19	-0.20	-0.050			
0.0867	5550.67	4.0730	4.0729	-0.8397	25.19	-0.20	-0.050			
0.0876	5605.54	4.0720	4.0719	-0.8401	25.19	-0.20	-0.050			
0.0884	5659.15	4.0710	4.0714	-0.8418	25.19	-0.20	-0.050			
0.0893	5713.07	4.0700	4.0699	-0.8420	25.20	-0.19	-0.050			
0.0901	5768.95	4.0690	4.0690	-0.8448	25.19	-0.20	-0.050			
0.0910	5822.59	4.0680	4.0678	-0.8441	25.19	-0.20	-0.050			
0.0918	5876.28	4.0670	4.0669	-0.8453	25.19	-0.20	-0.050			
0.0927	5929.95	4.0660	4.0661	-0.8462	25.19	-0.20	-0.050			
0.0935	5983.24	4.0650	4.0650	-0.8455	25.19	-0.20	-0.050			
0.0943	6037.30	4.0640	4.0640	-0.8440	25.19	-0.20	-0.050			
0.0952	6091.21	4.0630	4.0628	-0.8426	25.20	-0.19	-0.050			
0.0960	6145.31	4.0620	4.0618	-0.8408	25.20	-0.19	-0.050			
0.0968	6198.33	4.0610	4.0610	-0.8389	25.20	-0.19	-0.050			
0.0977	6252.48	4.0600	4.0600	-0.8427	25.19	-0.20	-0.050			
0.0985	6305.89	4.0590	4.0592	-0.8465	25.19	-0.20	-0.050			
0.0994	6361.39	4.0580	4.0581	-0.8499	25.19	-0.20	-0.050			
0.1002	6415.52	4.0570	4.0567	-0.8506	25.19	-0.20	-0.050	0.217	0.598	
0.1011	6469.64	4.0560	4.0559	-0.8496	25.20	-0.19	-0.050			
0.1020	6525.46	4.0550	4.0551	-0.8504	25.20	-0.19	-0.050			
0.1028	6580.57	4.0540	4.0540	-0.8503	25.20	-0.19	-0.050			
0.1037	6635.12	4.0530	4.0527	-0.8482	25.20	-0.19	-0.050			
0.1045	6689.62	4.0520	4.0518	-0.8489	25.20	-0.19	-0.050			
0.1053	6741.68	4.0510	4.0511	-0.8520	25.20	-0.19	-0.050			
0.1062	6796.73	4.0500	4.0501	-0.8519	25.20	-0.19	-0.050			
0.1071	6851.32	4.0490	4.0493	-0.8529	25.20	-0.19	-0.050			
0.1079	6905.65	4.0480	4.0481	-0.8533	25.20	-0.19	-0.050			
0.1087	6959.83	4.0470	4.0471	-0.8536	25.20	-0.19	-0.050			
0.1096	7014.45	4.0460	4.0460	-0.8564	25.21	-0.18	-0.050			
0.1105	7069.65	4.0450	4.0447	-0.8564	25.21	-0.18	-0.050			
0.1113	7124.21	4.0440	4.0440	-0.8647	25.20	-0.19	-0.050			
0.1122	7179.87	4.0430	4.0429	-0.8661	25.21	-0.18	-0.050			
0.1131	7235.88	4.0420	4.0417	-0.8662	25.21	-0.18	-0.050			
0.1139	7290.78	4.0410	4.0413	-0.8658	25.21	-0.18	-0.050			
0.1148	7345.98	4.0400	4.0403	-0.8665	25.20	-0.19	-0.050			
0.1156	7401.46	4.0390	4.0391	-0.8685	25.20	-0.19	-0.050			
0.1165	7457.90	4.0380	4.0381	-0.8699	25.20	-0.19	-0.050			
0.1174	7514.38	4.0370	4.0371	-0.8730	25.21	-0.18	-0.050			
0.1183	7570.62	4.0360	4.0359	-0.8732	25.21	-0.18	-0.050			
0.1192	7627.27	4.0350	4.0348	-0.8762	25.21	-0.18	-0.050			
0.1201	7683.97	4.0340	4.0341	-0.8743	25.21	-0.18	-0.050	0.436	0.559	
0.1209	7739.91	4.0330	4.0331	-0.8724	25.21	-0.18	-0.050			
0.1218	7794.45	4.0320	4.0319	-0.8719	25.21	-0.18	-0.050			
0.1226	7849.38	4.0310	4.0309	-0.8698	25.21	-0.18	-0.050			
0.1235	7906.44	4.0300	4.0301	-0.8717	25.21	-0.18	-0.050			
0.1244	7963.19	4.0290	4.0290	-0.8726	25.22	-0.17	-0.050			
0.1253	8018.25	4.0280	4.0279	-0.8719	25.22	-0.17	-0.050			
0.1262	8074.17	4.0270	4.0270	-0.8714	25.22	-0.17	-0.050			
0.1270	8130.10	4.0260	4.0260	-0.8683	25.22	-0.17	-0.050			
0.1279	8184.80	4.0250	4.0253	-0.8707	25.22	-0.17	-0.050			
0.1287	8239.84	4.0240	4.0239	-0.8681	25.22	-0.17	-0.050			
0.1296	8295.95	4.0230	4.0229	-0.8744	25.22	-0.17	-0.050			
0.1305	8352.23	4.0220	4.0218	-0.8758	25.22	-0.17	-0.050			
0.1314	8408.76	4.0210	4.0210	-0.8743	25.22	-0.17	-0.050			
0.1323	8464.17	4.0200	4.0199	-0.8737	25.22	-0.17	-0.050			
0.1331	8519.58	4.0190	4.0189	-0.8751	25.22	-0.17	-0.050			
0.1340	8576.06	4.0180	4.0185	-0.8758	25.22	-0.17	-0.050			
0.1349	8631.20	4.0170	4.0167	-0.8788	25.22	-0.17	-0.050			
0.1357	8687.97	4.0160	4.0157	-0.8776	25.23	-0.16	-0.050			
0.1366	8743.96	4.0150	4.0152	-0.8801	25.22	-0.17	-0.050			
0.1375	8800.99	4.0140	4.0140	-0.8827	25.22	-0.17	-0.050			
0.1384	8858.02	4.0130	4.0134	-0.8819	25.22	-0.17	-0.050			
0.1393	8913.87	4.0120	4.0120	-0.8802	25.23	-0.16	-0.050			
0.1402	8970.15	4.0110	4.0107	-0.8838	25.23	-0.16	-0.050			
0.1410	9026.93	4.0100	4.0101	-0.8860	25.23	-0.16	-0.050			
0.1419	9082.82	4.0090	4.0092	-0.8883	25.23	-0.16	-0.050			
0.1428	9139.18	4.0080	4.0080	-0.8884	25.23	-0.16	-0.050			
0.1437	9197.31	4.0070	4.0071	-0.8941	25.23	-0.16	-0.050			
0.1446	9254.10	4.0060	4.0059	-0.8944	25.24	-0.15	-0.050			
0.1455	9310.35	4.0050	4.0050	-0.8936	25.23	-0.16	-0.050			
0.1464	9368.26	4.0040	4.0040	-0.8997	25.24	-0.15	-0.050			
0.1473	9425.24	4.0030	4.0029	-0.9011	25.24	-0.15	-0.050			
0.1482	9484.45	4.0020	4.0017	-0.9021	25.24	-0.15	-0.050			
0.1491	9542.81	4.0010	4.0010	-0.9038	25.24	-0.15	-0.050			
0.1500	9600.14	4.0000	3.9999	-0.9049	25.23	-0.16	-0.050			
0.1509	9658.30	3.9990	3.9989	-0.9057	25.24	-0.15	-0.050			
0.1518	9716.77	3.9980	3.9981	-0.9049	25.24	-0.15	-0.050			
0.1527	9775.27	3.9970	3.9972	-0.9047	25.24	-0.15	-0.050			
0.1536	9833.45	3.9960	3.9960	-0.9060	25.24	-0.15	-0.050			
0.1546	9891.89	3.9950	3.9951	-0.9071	25.24	-0.15	-0.050			
0.1555	9949.86	3.9940	3.9945	-0.9076	25.24	-0.15	-0.050			
0.1564	10008.33	3.9930	3.9931	-0.9100	25.24	-0.15	-0.050			
0.1573	10066.40	3.9920	3.9917	-0.9095	25.25	-0.14	-0.050			
0.1582	10123.45	3.9910	3.9911	-0.9076	25.24	-0.15	-0.050			
0.1591	10181.24	3.9900	3.9902	-0.9088	25.25	-0.14	-0.050			
0.1600	10239.66	3.9890	3.9890	-0.9079	25.25	-0.14	-0.050	0.245	0.455	
0.1609	10297.15	3.9880	3.9881	-0.9098	25.25	-0.14	-0.050			
0.1618	10355.67	3.9870	3.9868	-0.9106	25.25	-0.14	-0.050			
0.1627	10414.63	3.9860	3.9859	-0.9123	25.25	-0.14	-0.050			
0.1636	10472.44	3.9850	3.9850	-0.9135	25.25	-0.14	-0.050			
0.1645	10529.77	3.9840	3.9842	-0.9176	25.25	-0.14	-0.050			
0.1655	10589.38	3.9830	3.9831	-0.9205	25.25	-0.14	-0.050			
0.1664	10648.81	3.9820	3.9820	-0.9222	25.26	-0.13	-0.050			
0.1673	10708.24	3.9810	3.9809	-0.9219	25.26	-0.13	-0.050			
0.1682	10767.99	3.9800	3.9802	-0.9208	25.25	-0.14	-0.050			
0.1692	10827.46	3.9790	3.9788	-0.9220	25.25	-0.14	-0.050			
0.1701	10887.34	3.9780	3.9781	-0.9212	25.26	-0.13	-0.050			
0.1711	10947.25	3.9770	3.9771	-0.9170	25.25	-0.14	-0.050			
0.1719	11004.68	3.9760	3.9758	-0.9199	25.26	-0.13	-0.050			
0.1729	11063.32	3.9750	3.9751	-0.9197	25.26	-0.13	-0.050			
0.1738	11121.87	3.9740	3.9741	-0.9206	25.26	-0.13	-0.050			
0.1747	11179.60	3.9730	3.9732	-0.9240	25.26	-0.13	-0.050			
0.1756	11239.15	3.9720	3.9720	-0.9242	25.26	-0.13	-0.050			
0.1765	11298.28	3.9710	3.9709	-0.9243	25.26	-0.13	-0.050			
0.1775	11357.04	3.9700	3.9699	-0.9247	25.26	-0.13	-0.050			
0.1784	11416.85	3.9690	3.9690	-0.9267	25.26	-0.13	-0.050			
0.1793	11476.05	3.9680	3.9678	-0.9265	25.27	-0.12	-0.050			
0.1802	11535.06	3.9670	3.9670	-0.9263	25.27	-0.12	-0.050	0.274	0.608	
0.1812	11593.68	3.9660	3.9661	-0.9294	25.26	-0.13	-0.050			
0.1821	11652.44	3.9650	3.9651	-0.9288	25.27	-0.12	-0.050			
0.1830	11712.74	3.9640	3.9641	-0.9275	25.26	-0.13	-0.050			
0.1840	11772.98	3.9630	3.9631	-0.9319	25.27	-0.12	-0.050			
0.1849	11833.09	3.9620	3.9619	-0.9360	25.26	-0.13	-0.050			
0.1858	11893.77	3.9610	3.9609	-0.9368	25.26	-0.13	-0.050			
0.1868	11954.13	3.9600	3.9600	-0.9377	25.27	-0.12	-0.050			
0.1877	12013.66	3.9590	3.9589	-0.9413	25.26	-0.13	-0.050			
0.1887	12073.81	3.9580	3.9581	-0.9407	25.27	-0.12	-0.050			
0.1896	12133.80	3.9570	3.9571	-0.9384	25.26	-0.13	-0.050			
0.1905	12193.37	3.9560	3.9560	-0.9343	25.26	-0.13	-0.050			
0.1915	12252.85	3.9550	3.9547	-0.9380	25.27	-0.12	-0.050			
0.1924	12313.00	3.9540	3.9538	-0.9403	25.26	-0.13	-0.050			
0.1933	12372.57	3.9530	3.9531	-0.9416	25.26	-0.13	-0.050			
0.1943	12432.96	3.9520	3.9519	-0.9454	25.26	-0.13	-0.050			
0.1952	12494.82	3.9510	3.9507	-0.9460	25.27	-0.12	-0.050			
0.1962	12556.39	3.9500	3.9499	-0.9453	25.26	-0.13	-0.050			
0.1971	12616.96	3.9490	3.9491	-0.9439	25.27	-0.12	-0.050			
0.1981	12677.09	3.9480	3.9477	-0.9459	25.26	-0.13	-0.050			
0.1990	12737.51	3.9470	3.9471	-0.9467	25.26	-0.13	-0.050			
0.2000	12797.96	3.9460	3.9458	-0.9456	25.27	-0.12	-0.050	0.577	0.567	
0.2009	12858.42	3.9450	3.9451	-0.9471	25.27	-0.12	-0.050			
0.2019	12919.51	3.9440	3.9440	-0.9515	25.27	-0.12	-0.050			
0.2028	12979.66	3.9430	3.9430	-0.9528	25.27	-0.12	-0.050			
0.2037	13039.88	3.9420	3.9421	-0.9535	25.26	-0.13	-0.050			
0.2047	13100.87	3.9410	3.9411	-0.9551	25.27	-0.12	-0.050			
0.2057	13162.21	3.9400	3.9399	-0.9557	25.27	-0.12	-0.050			
0.2066	13223.35	3.9390	3.9389	-0.9551	25.26	-0.13	-0.050			
0.2076	13285.17	3.9380	3.9382	-0.9575	25.26	-0.13	-0.050			
0.2085	13346.69	3.9370	3.9368	-0.9602	25.27	-0.12	-0.050			
0.2095	13408.99	3.9360	3.9358	-0.9597	25.26	-0.13	-0.050			
0.2105	13469.39	3.9350	3.9348	-0.9569	25.26	-0.13	-0.050			
0.2114	13531.20	3.9340	3.9344	-0.9595	25.27	-0.12	-0.050			
0.2124	13592.58	3.9330	3.9328	-0.9616	25.26	-0.13	-0.050			
0.2133	13654.11	3.9320	3.9323	-0.9628	25.27	-0.12	-0.050			
0.2143	13717.21	3.9310	3.9312	-0.9661	25.26	-0.13	-0.050			
0.2153	13778.75	3.9300	3.9299	-0.9695	25.26	-0.13	-0.050			
0.2162	13839.96	3.9290	3.9290	-0.9674	25.27	-0.12	-0.050			
0.2172	13902.16	3.9280	3.9279	-0.9654	25.26	-0.13	-0.050			
0.2182	13963.10	3.9270	3.9270	-0.9689	25.26	-0.13	-0.050			
0.2191	14025.21	3.9260	3.9255	-0.9701	25.26	-0.13	-0.050			
0.2201	14086.81	3.9250	3.9250	-0.9696	25.26	-0.13	-0.050	0.447	0.591	
0.2211	14148.42	3.9240	3.9241	-0.9695	25.26	-0.13	-0.050			
0.2221	14211.79	3.9230	3.9232	-0.9730	25.26	-0.13	-0.050			
0.2230	14273.98	3.9220	3.9220	-0.9745	25.26	-0.13	-0.050			
0.2240	14336.79	3.9210	3.9207	-0.9770	25.26	-0.13	-0.050			
0.2250	14400.10	3.9200	3.9201	-0.9761	25.26	-0.13	-0.050			
0.2260	14463.35	3.9190	3.9189	-0.9749	25.27	-0.12	-0.050			
0.2270	14526.46	3.9180	3.9179	-0.9732	25.26	-0.13	-0.050			
0.2279	14588.19	3.9170	3.9170	-0.9744	25.26	-0.13	-0.050			
0.2289	14650.46	3.9160	3.9162	-0.9752	25.26	-0.13	-0.050			
0.2299	14712.21	3.9150	3.9149	-0.9725	25.26	-0.13	-0.050			
0.2309	14774.53	3.9140	3.9140	-0.9756	25.26	-0.13	-0.050			
0.2318	14837.25	3.9130	3.9128	-0.9743	25.26	-0.13	-0.050			
0.2328	14899.55	3.9120	3.9122	-0.9743	25.25	-0.14	-0.050			
0.2338	14961.60	3.9110	3.9113	-0.9731	25.25	-0.14	-0.050			
0.2347	15023.94	3.9100	3.9099	-0.9719	25.25	-0.14	-0.050			
0.2357	15086.85	3.9090	3.9088	-0.9731	25.24	-0.15	-0.050			
0.2367	15149.59	3.9080	3.9078	-0.9707	25.25	-0.14	-0.050			
0.2377	15210.90	3.9070	3.9070	-0.9678	25.25	-0.14	-0.050			
0.2386	15273.27	3.9060	3.9059	-0.9708	25.24	-0.15	-0.050			
0.2396	15335.58	3.9050	3.9048	-0.9728	25.25	-0.14	-0.050			
0.2406	15397.08	3.9040	3.9039	-0.9734	25.24	-0.15	-0.050	0.444	0.544	
0.2415	15459.07	3.9030	3.9030	-0.9740	25.24	-0.15	-0.050			
0.2425	15521.57	3.9020	3.9019	-0.9737	25.24	-0.15	-0.050			
0.2435	15584.51	3.9010	3.9012	-0.9749	25.23	-0.16	-0.050			
0.2445	15646.90	3.9000	3.8999	-0.9756	25.23	-0.16	-0.050			
0.2455	15709.08	3.8990	3.8991	-0.9763	25.23	-0.16	-0.050			
0.2464	15771.84	3.8980	3.8977	-0.9743	25.23	-0.16	-0.050			
0.2474	15832.75	3.8970	3.8969	-0.9739	25.22	-0.17	-0.050			
0.2484	15895.21	3.8960	3.8961	-0.9758	25.23	-0.16	-0.050			
0.2493	15957.15	3.8950	3.8950	-0.9771	25.22	-0.17	-0.050			
0.2503	16019.31	3.8940	3.8940	-0.9810	25.22	-0.17	-0.050			
0.2513	16083.02	3.8930	3.8930	-0.9873	25.21	-0.18	-0.050			
0.2523	16145.19	3.8920	3.8920	-0.9902	25.21	-0.18	-0.050			
0.2533	16208.67	3.8910	3.8911	-0.9938	25.22	-0.17	-0.050			
0.2543	16274.32	3.8900	3.8899	-0.9959	25.22	-0.17	-0.050			
0.2553	16338.06	3.8890	3.8890	-0.9954	25.21	-0.18	-0.050			
0.2563	16401.91	3.8880	3.8879	-0.9950	25.22	-0.17	-0.050			
0.2573	16466.01	3.8870	3.8869	-0.9938	25.21	-0.18	-0.050			
0.2583	16529.26	3.8860	3.8859	-0.9942	25.21	-0.18	-0.050			
0.2593	16594.53	3.8850	3.8849	-0.9949	25.21	-0.18	-0.050			
0.2603	16657.98	3.8840	3.8842	-0.9946	25.21	-0.18	-0.050	0.441	0.751	
0.2613	16721.49	3.8830	3.8832	-0.9954	25.21	-0.18	-0.050			
0.2623	16785.49	3.8820	3.8820	-0.9999	25.21	-0.18	-0.050			
0.2633	16849.90	3.8810	3.8813	-0.9994	25.21	-0.18	-0.050			
0.2643	16914.85	3.8800	3.8799	-0.9988	25.20	-0.19	-0.050			
0.2653	16978.39	3.8790	3.8789	-0.9967	25.21	-0.18	-0.050			
0.2663	17042.89	3.8780	3.8777	-0.9942	25.20	-0.19	-0.050			
0.2673	17105.60	3.8770	3.8769	-0.9910	25.20	-0.19	-0.050			
0.2683	17168.21	3.8760	3.8760	-0.9903	25.21	-0.18	-0.050			
0.2692	17231.61	3.8750	3.8750	-0.9885	25.21	-0.18	-0.050			
0.2702	17294.08	3.8740	3.8740	-0.9869	25.21	-0.18	-0.050			
0.2712	17356.51	3.8730	3.8728	-0.9905	25.21	-0.18	-0.050			
0.2722	17419.38	3.8720	3.8725	-0.9937	25.20	-0.19	-0.050			
0.2732	17483.08	3.8710	3.8708	-0.9984	25.21	-0.18	-0.050			
0.2742	17548.05	3.8700	3.8700	-1.0023	25.20	-0.19	-0.050			
0.2752	17612.78	3.8690	3.8691	-1.0030	25.21	-0.18	-0.050			
0.2762	17676.72	3.8680	3.8680	-1.0006	25.20	-0.19	-0.050			
0.2772	17741.01	3.8670	3.8670	-1.0006	25.20	-0.19	-0.050			
0.2782	17805.03	3.8660	3.8661	-1.0012	25.20	-0.19	-0.050			
0.2792	17869.37	3.8650	3.8649	-1.0009	25.20	-0.19	-0.050			
0.2802	17932.32	3.8640	3.8639	-1.0002	25.21	-0.18	-0.050	0.476	0.562	
0.2812	17996.55	3.8630	3.8633	-1.0024	25.21	-0.18	-0.050			
0.2822	18061.29	3.8620	3.8622	-1.0002	25.20	-0.19	-0.050			
0.2832	18126.97	3.8610	3.8613	-1.0044	25.21	-0.18	-0.050			
0.2842	18191.36	3.8600	3.8603	-1.0053	25.21	-0.18	-0.050			
0.2852	18255.93	3.8590	3.8589	-1.0042	25.20	-0.19	-0.050			
0.2863	18320.40	3.8580	3.8577	-1.0048	25.21	-0.18	-0.050			
0.2872	18383.17	3.8570	3.8570	-1.0040	25.21	-0.18	-0.050			
0.2882	18447.45	3.8560	3.8562	-1.0049	25.22	-0.17	-0.050			
0.2892	18511.63	3.8550	3.8550	-1.0037	25.21	-0.18	-0.050			
0.2903	18576.28	3.8540	3.8539	-1.0006	25.21	-0.18	-0.050			
0.2912	18639.40	3.8530	3.8530	-0.9979	25.21	-0.18	-0.050			
0.2922	18703.35	3.8520	3.8518	-1.0000	25.22	-0.17	-0.050			
0.2932	18767.94	3.8510	3.8513	-1.0015	25.21	-0.18	-0.050			
0.2943	18832.63	3.8500	3.8496	-1.0029	25.21	-0.18	-0.050			
0.2953	18897.42	3.8490	3.8492	-1.0025	25.22	-0.17	-0.050			
0.2963	18961.47	3.8480	3.8480	-1.0034	25.21	-0.18	-0.050			
0.2973	19025.60	3.8470	3.8469	-1.0018	25.22	-0.17	-0.050			
0.2983	19089.06	3.8460	3.8461	-1.0029	25.21	-0.18	-0.050			
0.2993	19152.76	3.8450	3.8451	-1.0043	25.22	-0.17	-0.050			
0.3002	19215.93	3.8440	3.8441	-1.0057	25.22	-0.17	-0.050	0.578	0.564	
0.3013	19280.63	3.8430	3.8429	-1.0084	25.22	-0.17	-0.050			
0.3023	19345.93	3.8420	3.8422	-1.0078	25.22	-0.17	-0.050			
0.3033	19409.45	3.8410	3.8410	-1.0073	25.22	-0.17	-0.050			
0.3043	19474.42	3.8400	3.8402	-1.0104	25.23	-0.16	-0.050			
0.3053	19540.26	3.8390	3.8389	-1.0063	25.22	-0.17	-0.050			
0.3063	19604.89	3.8380	3.8379	-1.0080	25.22	-0.17	-0.050			
0.3073	19669.79	3.8370	3.8370	-1.0038	25.22	-0.17	-0.050			
0.3084	19735.03	3.8360	3.8361	-1.0053	25.22	-0.17	-0.050			
0.3094	19799.63	3.8350	3.8349	-1.0063	25.22	-0.17	-0.050			
0.3104	19863.84	3.8340	3.8341	-1.0062	25.23	-0.16	-0.050			
0.3114	19927.61	3.8330	3.8330	-1.0036	25.23	-0.16	-0.050			
0.3124	19992.15	3.8320	3.8320	-1.0019	25.23	-0.16	-0.050			
0.3134	20056.66	3.8310	3.8313	-1.0017	25.23	-0.16	-0.050			
0.3144	20120.50	3.8300	3.8298	-1.0006	25.23	-0.16	-0.050			
0.3154	20184.88	3.8290	3.8287	-0.9978	25.24	-0.15	-0.050			
0.3164	20248.77	3.8280	3.8282	-0.9926	25.23	-0.16	-0.050			
0.3174	20311.83	3.8270	3.8269	-0.9914	25.24	-0.15	-0.050			
0.3183	20374.23	3.8260	3.8259	-0.9869	25.23	-0.16	-0.050			
0.3193	20437.44	3.8250	3.8250	-0.9863	25.23	-0.16	-0.050			
0.3203	20500.34	3.8240	3.8240	-0.9848	25.24	-0.15	-0.050	0.498	0.656	
0.3213	20564.28	3.8230	3.8232	-0.9823	25.24	-0.15	-0.050			
0.3223	20627.67	3.8220	3.8221	-0.9817	25.24	-0.15	-0.050			
0.3233	20689.43	3.8210	3.8211	-0.9809	25.24	-0.15	-0.050			
0.3243	20752.54	3.8200	3.8201	-0.9803	25.24	-0.15	-0.050			
0.3253	20816.71	3.8190	3.8189	-0.9790	25.24	-0.15	-0.050			
0.3262	20879.24	3.8180	3.8176	-0.9751	25.23	-0.16	-0.050			
0.3272	20941.59	3.8170	3.8172	-0.9706	25.23	-0.16	-0.050			
0.3282	21003.41	3.8160	3.8160	-0.9666	25.24	-0.15	-0.050			
0.3291	21065.25	3.8150	3.8150	-0.9585	25.24	-0.15	-0.050			
0.3301	21126.41	3.8140	3.8140	-0.9558	25.24	-0.15	-0.050			
0.3311	21188.26	3.8130	3.8127	-0.9496	25.24	-0.15	-0.050			
0.3320	21249.32	3.8120	3.8119	-0.9469	25.24	-0.15	-0.050			
0.3330	21310.24	3.8110	3.8109	-0.9411	25.24	-0.15	-0.050			
0.3339	21370.65	3.8100	3.8101	-0.9353	25.24	-0.15	-0.050			
0.3349	21430.96	3.8090	3.8088	-0.9286	25.24	-0.15	-0.050			
0.3358	21490.69	3.8080	3.8080	-0.9215	25.24	-0.15	-0.050			
0.3367	21549.50	3.8070	3.8071	-0.9121	25.25	-0.14	-0.050			
0.3376	21607.25	3.8060	3.8061	-0.9060	25.25	-0.14	-0.050			
0.3385	21665.33	3.8050	3.8049	-0.8991	25.24	-0.15	-0.050			
0.3394	21721.93	3.8040	3.8039	-0.8935	25.25	-0.14	-0.050			
0.3403	21778.87	3.8030	3.8030	-0.8875	25.24	-0.15	-0.050	0.391	0.489	
0.3412	21835.06	3.8020	3.8022	-0.8774	25.25	-0.14	-0.050			
0.3420	21890.25	3.8010	3.8012	-0.8710	25.25	-0.14	-0.050			
0.3429	21946.53	3.8000	3.7999	-0.8638	25.25	-0.14	-0.050			
0.3438	22002.34	3.7990	3.7989	-0.8582	25.24	-0.15	-0.050			
0.3446	22056.96	3.7980	3.7977	-0.8506	25.25	-0.14	-0.050			
0.3455	22111.11	3.7970	3.7967	-0.8436	25.25	-0.14	-0.050			
0.3463	22165.16	3.7960	3.7961	-0.8344	25.25	-0.14	-0.050			
0.3472	22218.99	3.7950	3.7948	-0.8275	25.25	-0.14	-0.050			
0.3480	22271.77	3.7940	3.7940	-0.8192	25.25	-0.14	-0.050			
0.3488	22323.60	3.7930	3.7931	-0.8133	25.25	-0.14	-0.050			
0.3496	22375.64	3.7920	3.7918	-0.8052	25.25	-0.14	-0.050			
0.3504	22427.11	3.7910	3.7911	-0.7973	25.25	-0.14	-0.050			
0.3512	22478.02	3.7900	3.7901	-0.7913	25.26	-0.13	-0.050			
0.3520	22528.44	3.7890	3.7890	-0.7820	25.26	-0.13	-0.050			
0.3528	22578.35	3.7880	3.7880	-0.7735	25.25	-0.14	-0.050			
0.3535	22626.92	3.7870	3.7870	-0.7653	25.26	-0.13	-0.050			
0.3543	22674.89	3.7860	3.7862	-0.7543	25.26	-0.13	-0.050			
0.3550	22722.56	3.7850	3.7848	-0.7490	25.26	-0.13	-0.050			
0.3558	22770.04	3.7840	3.7841	-0.7426	25.25	-0.14	-0.050			
0.3565	22816.77	3.7830	3.7833	-0.7372	25.26	-0.13	-0.050			
0.3573	22864.13	3.7820	3.7821	-0.7325	25.26	-0.13	-0.050			
0.3580	22909.98	3.7810	3.7808	-0.7270	25.26	-0.13	-0.050			
0.3587	22956.21	3.7800	3.7801	-0.7225	25.26	-0.13	-0.050			
0.3594	23002.90	3.7790	3.7791	-0.7185	25.26	-0.13	-0.050			
0.3601	23048.06	3.7780	3.7779	-0.7122	25.26	-0.13	-0.050			
0.3608	23093.45	3.7770	3.7771	-0.7086	25.26	-0.13	-0.050			
0.3615	23138.72	3.7760	3.7759	-0.7042	25.26	-0.13	-0.050			
0.3622	23183.63	3.7750	3.7751	-0.7013	25.26	-0.13	-0.050			
0.3629	23227.11	3.7740	3.7739	-0.6996	25.26	-0.13	-0.050			
0.3636	23270.82	3.7730	3.7733	-0.6961	25.26	-0.13	-0.050			
0.3643	23315.98	3.7720	3.7720	-0.6945	25.25	-0.14	-0.050			
0.3650	23360.48	3.7710	3.7711	-0.6931	25.26	-0.13	-0.050			
0.3657	23404.07	3.7700	3.7701	-0.6929	25.26	-0.13	-0.050			
0.3664	23448.31	3.7690	3.7690	-0.6916	25.26	-0.13	-0.050			
0.3671	23492.96	3.7680	3.7680	-0.6918	25.26	-0.13	-0.050			
0.3678	23537.16	3.7670	3.7668	-0.6894	25.26	-0.13	-0.050			
0.3684	23580.61	3.7660	3.7659	-0.6898	25.26	-0.13	-0.050			
0.3691	23624.14	3.7650	3.7648	-0.6890	25.25	-0.14	-0.050			
0.3698	23667.05	3.7640	3.7640	-0.6929	25.25	-0.14	-0.050			
0.3705	23711.12	3.7630	3.7633	-0.6954	25.26	-0.13	-0.050			
0.3712	23756.14	3.7620	3.7619	-0.6952	25.25	-0.14	-0.050			
0.3719	23800.72	3.7610	3.7607	-0.6984	25.25	-0.14	-0.050			
0.3726	23844.92	3.7600	3.7604	-0.7014	25.25	-0.14	-0.050			
0.3733	23890.02	3.7590	3.7592	-0.7056	25.25	-0.14	-0.050			
0.3740	23934.89	3.7580	3.7578	-0.7103	25.25	-0.14	-0.050			
0.3747	23980.14	3.7570	3.7569	-0.7136	25.25	-0.14	-0.050			
0.3754	24025.84	3.7560	3.7561	-0.7161	25.25	-0.14	-0.050			
0.3761	24071.20	3.7550	3.7550	-0.7207	25.25	-0.14	-0.050			
0.3768	24116.95	3.7540	3.7542	-0.7239	25.25	-0.14	-0.050			
0.3775	24162.16	3.7530	3.7530	-0.7314	25.26	-0.13	-0.050			
0.3783	24209.47	3.7520	3.7517	-0.7407	25.26	-0.13	-0.050			
0.3790	24257.03	3.7510	3.7512	-0.7481	25.25	-0.14	-0.050			
0.3798	24304.26	3.7500	3.7499	-0.7557	25.25	-0.14	-0.050			
0.3805	24352.79	3.7490	3.7491	-0.7633	25.26	-0.13	-0.050	0.428	0.620	
0.3813	24400.87	3.7480	3.7479	-0.7760	25.25	-0.14	-0.050			
0.3820	24451.20	3.7470	3.7470	-0.7865	25.26	-0.13	-0.050			
0.3828	24500.05	3.7460	3.7459	-0.7945	25.25	-0.14	-0.050			
0.3836	24550.76	3.7450	3.7450	-0.8064	25.25	-0.14	-0.050			
0.3844	24602.44	3.7440	3.7438	-0.8171	25.26	-0.13	-0.050			
0.3852	24654.27	3.7430	3.7429	-0.8304	25.25	-0.14	-0.050			
0.3861	24708.45	3.7420	3.7422	-0.8472	25.26	-0.13	-0.050			
0.3869	24762.29	3.7410	3.7411	-0.8604	25.26	-0.13	-0.050			
0.3878	24818.42	3.7400	3.7399	-0.8739	25.26	-0.13	-0.050			
0.3887	24874.18	3.7390	3.7389	-0.8884	25.26	-0.13	-0.050			
0.3896	24931.71	3.7380	3.7382	-0.9041	25.26	-0.13	-0.050			
0.3905	24990.19	3.7370	3.7368	-0.9196	25.26	-0.13	-0.050			
0.3914	25050.58	3.7360	3.7360	-0.9322	25.26	-0.13	-0.050			
0.3924	25110.89	3.7350	3.7350	-0.9459	25.26	-0.13	-0.050			
0.3933	25171.56	3.7340	3.7338	-0.9585	25.26	-0.13	-0.050			
0.3942	25231.94	3.7330	3.7331	-0.9768	25.26	-0.13	-0.050			
0.3952	25294.56	3.7320	3.7321	-0.9923	25.25	-0.14	-0.050			
0.3962	25358.95	3.7310	3.7312	-1.0095	25.26	-0.13	-0.050			
0.3972	25423.70	3.7300	3.7299	-1.0256	25.25	-0.14	-0.050			
0.3983	25490.50	3.7290	3.7289	-1.0414	25.25	-0.14	-0.050			
0.3993	25555.89	3.7280	3.7282	-1.0588	25.26	-0.13	-0.050			
0.4004	25624.27	3.7270	3.7270	-1.0770	25.25	-0.14	-0.050	0.436	0.637	
0.4015	25693.70	3.7260	3.7259	-1.0943	25.24	-0.15	-0.050			
0.4026	25763.63	3.7250	3.7249	-1.1138	25.24	-0.15	-0.050			
0.4037	25835.23	3.7240	3.7239	-1.1328	25.24	-0.15	-0.050			
0.4048	25908.23	3.7230	3.7233	-1.1508	25.24	-0.15	-0.050			
0.4060	25982.55	3.7220	3.7221	-1.1687	25.24	-0.15	-0.050			
0.4072	26059.10	3.7210	3.7210	-1.1856	25.23	-0.16	-0.050			
0.4084	26137.09	3.7200	3.7200	-1.2012	25.23	-0.16	-0.050			
0.4096	26214.03	3.7190	3.7187	-1.2189	25.24	-0.15	-0.050			
0.4108	26293.80	3.7180	3.7181	-1.2355	25.23	-0.16	-0.050			
0.4121	26373.55	3.7170	3.7169	-1.2495	25.22	-0.17	-0.050			
0.4133	26454.31	3.7160	3.7159	-1.2687	25.22	-0.17	-0.050			
0.4146	26535.16	3.7150	3.7151	-1.2854	25.22	-0.17	-0.050			
0.4159	26618.59	3.7140	3.7142	-1.2978	25.21	-0.18	-0.050			
0.4172	26701.45	3.7130	3.7130	-1.3127	25.21	-0.18	-0.050			
0.4185	26785.83	3.7120	3.7120	-1.3342	25.20	-0.19	-0.050			
0.4199	26872.44	3.7110	3.7107	-1.3483	25.20	-0.19	-0.050	0.537	0.640	
0.4212	26959.22	3.7100	3.7098	-1.3623	25.19	-0.20	-0.050			
0.4226	27047.09	3.7090	3.7091	-1.3762	25.18	-0.21	-0.050			
0.4240	27135.38	3.7080	3.7080	-1.3893	25.19	-0.20	-0.050			
0.4254	27225.33	3.7070	3.7068	-1.4062	25.18	-0.21	-0.050			
0.4268	27316.09	3.7060	3.7062	-1.4190	25.17	-0.22	-0.050			
0.4282	27406.24	3.7050	3.7053	-1.4373	25.18	-0.21	-0.050			
0.4297	27499.44	3.7040	3.7038	-1.4536	25.16	-0.23	-0.050			
0.4311	27592.97	3.7030	3.7027	-1.4710	25.16	-0.23	-0.050			
0.4326	27688.01	3.7020	3.7021	-1.4892	25.16	-0.23	-0.050			
0.4341	27784.39	3.7010	3.7008	-1.5049	25.16	-0.23	-0.050			
0.4356	27880.73	3.7000	3.6998	-1.5187	25.16	-0.23	-0.050			
0.4371	27977.50	3.6990	3.6987	-1.5348	25.16	-0.23	-0.050			
0.4387	28077.25	3.6980	3.6981	-1.5503	25.16	-0.23	-0.050			
0.4403	28176.01	3.6970	3.6974	-1.5668	25.15	-0.24	-0.050	0.429	0.598	
0.4418	28275.37	3.6960	3.6960	-1.5833	25.15	-0.24	-0.050			
0.4434	28379.54	3.6950	3.6952	-1.5947	25.15	-0.24	-0.050			
0.4450	28482.98	3.6940	3.6938	-1.6114	25.14	-0.25	-0.050			
0.4467	28586.33	3.6930	3.6928	-1.6224	25.14	-0.25	-0.050			
0.4483	28690.93	3.6920	3.6920	-1.6421	25.14	-0.25	-0.050			
0.4499	28795.48	3.6910	3.6910	-1.6648	25.13	-0.26	-0.050			
0.4516	28902.44	3.6900	3.6899	-1.6811	25.13	-0.26	-0.050			
0.4533	29009.63	3.6890	3.6893	-1.7025	25.13	-0.26	-0.050			
0.4550	29117.89	3.6880	3.6878	-1.7198	25.12	-0.27	-0.050			
0.4567	29228.88	3.6870	3.6875	-1.7372	25.13	-0.26	-0.050			
0.4585	29341.19	3.6860	3.6861	-1.7522	25.13	-0.26	-0.050			
0.4602	29453.23	3.6850	3.6849	-1.7695	25.13	-0.26	-0.050	0.498	0.524	
0.4620	29567.86	3.6840	3.6840	-1.7865	25.13	-0.26	-0.050			
0.4638	29682.29	3.6830	3.6831	-1.8047	25.12	-0.27	-0.050			
0.4656	29798.29	3.6820	3.6819	-1.8280	25.12	-0.27	-0.050			
0.4674	29914.10	3.6810	3.6811	-1.8532	25.13	-0.26	-0.050			
0.4693	30032.32	3.6800	3.6803	-1.8759	25.12	-0.27	-0.050			
0.4711	30153.20	3.6790	3.6791	-1.8964	25.12	-0.27	-0.050			
0.4731	30277.20	3.6780	3.6780	-1.9171	25.12	-0.27	-0.050			
0.4750	30400.33	3.6770	3.6768	-1.9397	25.13	-0.26	-0.050			
0.4770	30525.18	3.6760	3.6759	-1.9641	25.12	-0.27	-0.050			
0.4790	30653.40	3.6750	3.6751	-1.9866	25.12	-0.27	-0.050			
0.4809	30778.77	3.6740	3.6737	-2.0085	25.13	-0.26	-0.050	0.393	0.518	
0.4829	30907.67	3.6730	3.6733	-2.0298	25.12	-0.27	-0.050			
0.4850	31037.24	3.6720	3.6721	-2.0500	25.13	-0.26	-0.050			
0.4870	31168.22	3.6710	3.6713	-2.0717	25.12	-0.27	-0.050			
0.4891	31301.93	3.6700	3.6702	-2.1029	25.13	-0.26	-0.050			
0.4912	31436.98	3.6690	3.6691	-2.1315	25.12	-0.27	-0.050			
0.4934	31575.95	3.6680	3.6678	-2.1585	25.14	-0.25	-0.050			
0.4955	31714.52	3.6670	3.6670	-2.1872	25.13	-0.26	-0.050			
0.4978	31856.04	3.6660	3.6657	-2.2071	25.13	-0.26	-0.050			
0.5000	31996.99	3.6650	3.6650	-2.2338	25.14	-0.25	-0.050			
0.5022	32140.80	3.6640	3.6641	-2.2637	25.14	-0.25	-0.050			
0.5045	32284.83	3.6630	3.6628	-2.2819	25.14	-0.25	-0.050			
0.5067	32430.65	3.6620	3.6620	-2.3130	25.13	-0.26	-0.050			
0.5090	32579.04	3.6610	3.6611	-2.3438	25.15	-0.24	-0.050			
0.5114	32730.39	3.6600	3.6600	-2.3792	25.15	-0.24	-0.050			
0.5138	32884.66	3.6590	3.6591	-2.4107	25.15	-0.24	-0.050			
0.5163	33040.51	3.6580	3.6579	-2.4378	25.15	-0.24	-0.050			
0.5187	33195.76	3.6570	3.6570	-2.4667	25.14	-0.25	-0.050			
0.5212	33354.79	3.6560	3.6559	-2.4971	25.15	-0.24	-0.050	0.406	0.559	
0.5237	33514.73	3.6550	3.6551	-2.5345	25.16	-0.23	-0.050			
0.5262	33677.41	3.6540	3.6540	-2.5640	25.15	-0.24	-0.050			
0.5288	33843.05	3.6530	3.6528	-2.5974	25.16	-0.23	-0.050			
0.5314	34010.36	3.6520	3.6521	-2.6296	25.16	-0.23	-0.050			
0.5341	34179.70	3.6510	3.6511	-2.6571	25.16	-0.23	-0.050			
0.5367	34350.72	3.6500	3.6501	-2.6962	25.16	-0.23	-0.050			
0.5395	34526.43	3.6490	3.6488	-2.7255	25.17	-0.22	-0.050	0.446	0.533	
0.5422	34701.57	3.6480	3.6479	-2.7570	25.17	-0.22	-0.050			
0.5450	34879.27	3.6470	3.6470	-2.7950	25.17	-0.22	-0.050			
0.5478	35058.00	3.6460	3.6461	-2.8209	25.16	-0.23	-0.050			
0.5506	35240.08	3.6450	3.6449	-2.8551	25.17	-0.22	-0.050			
0.5535	35424.54	3.6440	3.6441	-2.8826	25.17	-0.22	-0.050			
0.5564	35607.87	3.6430	3.6429	-2.9185	25.17	-0.22	-0.050			
0.5593	35795.98	3.6420	3.6421	-2.9551	25.17	-0.22	-0.050	0.369	0.537	
0.5623	35986.34	3.6410	3.6408	-2.9898	25.17	-0.22	-0.050			
0.5653	36179.46	3.6400	3.6399	-3.0220	25.17	-0.22	-0.050			
0.5683	36371.81	3.6390	3.6393	-3.0444	25.16	-0.23	-0.050			
0.5714	36567.94	3.6380	3.6379	-3.0818	25.16	-0.23	-0.050			
0.5745	36767.04	3.6370	3.6370	-3.1160	25.16	-0.23	-0.050			
0.5776	36968.82	3.6360	3.6358	-3.1430	25.16	-0.23	-0.050			
0.5808	37172.74	3.6350	3.6353	-3.1756	25.15	-0.24	-0.050	0.210	0.575	
0.5840	37375.71	3.6340	3.6342	-3.1950	25.15	-0.24	-0.050			
0.5873	37585.28	3.6330	3.6330	-3.2166	25.15	-0.24	-0.050			
0.5905	37793.24	3.6320	3.6319	-3.2193	25.14	-0.25	-0.050			
0.5938	38001.65	3.6310	3.6309	-3.2324	25.15	-0.24	-0.050			
0.5971	38211.52	3.6300	3.6302	-3.2397	25.15	-0.24	-0.050			
0.6003	38419.55	3.6290	3.6292	-3.2393	25.14	-0.25	-0.050	0.359	0.575	
0.6036	38628.02	3.6280	3.6282	-3.2349	25.12	-0.27	-0.050			
0.6068	38835.71	3.6270	3.6267	-3.2407	25.12	-0.27	-0.050			
0.6101	39044.52	3.6260	3.6262	-3.2384	25.11	-0.28	-0.050			
0.6133	39252.26	3.6250	3.6250	-3.2375	25.10	-0.29	-0.050			
0.6165	39458.69	3.6240	3.6241	-3.2195	25.10	-0.29	-0.050			
0.6198	39664.57	3.6230	3.6228	-3.2083	25.10	-0.29	-0.050	0.411	0.669	
0.6230	39872.43	3.6220	3.6220	-3.1863	25.09	-0.30	-0.050			
0.6262	40077.26	3.6210	3.6210	-3.1497	25.09	-0.30	-0.050			
0.6294	40281.61	3.6200	3.6200	-3.1274	25.09	-0.30	-0.050			
0.6326	40486.27	3.6190	3.6191	-3.0871	25.09	-0.30	-0.050			
0.6357	40687.50	3.6180	3.6181	-3.0458	25.09	-0.30	-0.050			
0.6388	40884.28	3.6170	3.6171	-2.9864	25.09	-0.30	-0.050			
0.6418	41075.23	3.6160	3.6162	-2.9218	25.09	-0.30	-0.050	0.325	0.675	
0.6447	41262.62	3.6150	3.6151	-2.8606	25.09	-0.30	-0.050			
0.6476	41443.96	3.6140	3.6143	-2.7877	25.08	-0.31	-0.050			
0.6503	41619.09	3.6130	3.6131	-2.7141	25.09	-0.30	-0.050			
0.6529	41787.86	3.6120	3.6121	-2.6405	25.10	-0.29	-0.050			
0.6555	41952.21	3.6110	3.6110	-2.5709	25.10	-0.29	-0.050			
0.6580	42111.37	3.6100	3.6100	-2.5072	25.11	-0.28	-0.050			
0.6604	42263.54	3.6090	3.6091	-2.4429	25.11	-0.28	-0.050			
0.6628	42418.60	3.6080	3.6081	-2.3869	25.11	-0.28	-0.050			
0.6651	42566.15	3.6070	3.6071	-2.3430	25.12	-0.27	-0.050			
0.6673	42708.50	3.6060	3.6061	-2.2943	25.12	-0.27	-0.050			
0.6695	42850.69	3.6050	3.6052	-2.2586	25.13	-0.26	-0.050			
0.6717	42986.35	3.6040	3.6039	-2.2288	25.14	-0.25	-0.050			
0.6738	43122.93	3.6030	3.6029	-2.2006	25.14	-0.25	-0.050			
0.6760	43262.13	3.6020	3.6020	-2.1765	25.15	-0.24	-0.050			
0.6781	43398.57	3.6010	3.6008	-2.1564	25.16	-0.23	-0.050			
0.6802	43533.91	3.6000	3.6004	-2.1403	25.16	-0.23	-0.050	0.441	0.628	
0.6823	43668.80	3.5990	3.5991	-2.1277	25.18	-0.21	-0.050			
0.6844	43804.32	3.5980	3.5980	-2.1153	25.19	-0.20	-0.050			
0.6866	43939.63	3.5970	3.5972	-2.1068	25.20	-0.19	-0.050			
0.6887	44076.39	3.5960	3.5961	-2.0959	25.20	-0.19	-0.050			
0.6908	44212.27	3.5950	3.5949	-2.0826	25.21	-0.18	-0.050			
0.6929	44346.80	3.5940	3.5944	-2.0710	25.22	-0.17	-0.050			
0.6950	44480.19	3.5930	3.5930	-2.0547	25.23	-0.16	-0.050			
0.6971	44613.94	3.5920	3.5919	-2.0338	25.23	-0.16	-0.050			
0.6991	44744.12	3.5910	3.5907	-2.0170	25.24	-0.15	-0.050			
0.7011	44872.10	3.5900	3.5901	-1.9907	25.25	-0.14	-0.050	0.497	0.626	
0.7031	45000.43	3.5890	3.5890	-1.9679	25.25	-0.14	-0.050			
0.7051	45125.72	3.5880	3.5882	-1.9463	25.26	-0.13	-0.050			
0.7070	45249.66	3.5870	3.5872	-1.9146	25.26	-0.13	-0.050			
0.7089	45370.62	3.5860	3.5863	-1.8925	25.26	-0.13	-0.050			
0.7108	45491.92	3.5850	3.5847	-1.8679	25.27	-0.12	-0.050			
0.7126	45608.81	3.5840	3.5840	-1.8470	25.28	-0.11	-0.050			
0.7145	45727.17	3.5830	3.5831	-1.8305	25.28	-0.11	-0.050			
0.7163	45844.89	3.5820	3.5818	-1.8049	25.28	-0.11	-0.050			
0.7181	45957.33	3.5810	3.5812	-1.7774	25.29	-0.10	-0.050			
0.7198	46068.79	3.5800	3.5799	-1.7558	25.30	-0.09	-0.050	0.349	0.512	
0.7215	46178.53	3.5790	3.5789	-1.7410	25.30	-0.09	-0.050			
0.7232	46287.65	3.5780	3.5780	-1.7257	25.30	-0.09	-0.050			
0.7249	46395.33	3.5770	3.5769	-1.7160	25.31	-0.08	-0.050			
0.7266	46502.88	3.5760	3.5762	-1.7049	25.31	-0.08	-0.050			
0.7283	46609.90	3.5750	3.5749	-1.7033	25.31	-0.08	-0.050			
0.7299	46715.18	3.5740	3.5741	-1.7008	25.31	-0.08	-0.050			
0.7316	46823.62	3.5730	3.5726	-1.7000	25.32	-0.07	-0.050			
0.7333	46931.63	3.5720	3.5718	-1.7006	25.32	-0.07	-0.050			
0.7350	47037.00	3.5710	3.5710	-1.7004	25.32	-0.07	-0.050			
0.7366	47144.92	3.5700	3.5698	-1.7103	25.32	-0.07	-0.050			
0.7383	47253.07	3.5690	3.5686	-1.7221	25.32	-0.07	-0.050			
0.7401	47363.22	3.5680	3.5683	-1.7251	25.34	-0.05	-0.050	0.279	0.635	
0.7418	47473.36	3.5670	3.5672	-1.7383	25.34	-0.05	-0.050			
0.7435	47585.36	3.5660	3.5660	-1.7414	25.34	-0.05	-0.050			
0.7453	47700.16	3.5650	3.5650	-1.7489	25.33	-0.06	-0.050			
0.7471	47815.17	3.5640	3.5640	-1.7489	25.34	-0.05	-0.050			
0.7489	47930.62	3.5630	3.5629	-1.7490	25.33	-0.06	-0.050			
0.7507	48045.66	3.5620	3.5620	-1.7462	25.34	-0.05	-0.050			
0.7525	48160.05	3.5610	3.5612	-1.7389	25.34	-0.05	-0.050			
0.7543	48272.90	3.5600	3.5601	-1.7244	25.35	-0.04	-0.050			
0.7560	48385.37	3.5590	3.5587	-1.7085	25.34	-0.05	-0.050			
0.7577	48495.79	3.5580	3.5578	-1.6910	25.35	-0.04	-0.050			
0.7595	48607.26	3.5570	3.5573	-1.6676	25.35	-0.04	-0.050			
0.7612	48715.18	3.5560	3.5560	-1.6420	25.35	-0.04	-0.050	0.426	0.725	
0.7628	48821.01	3.5550	3.5549	-1.6173	25.35	-0.04	-0.050			
0.7645	48925.73	3.5540	3.5539	-1.5908	25.35	-0.04	-0.050			
0.7661	49028.58	3.5530	3.5528	-1.5582	25.35	-0.04	-0.050			
0.7676	49126.52	3.5520	3.5521	-1.5195	25.35	-0.04	-0.050			
0.7691	49222.08	3.5510	3.5511	-1.4840	25.35	-0.04	-0.050			
0.7705	49315.15	3.5500	3.5500	-1.4471	25.35	-0.04	-0.050			
0.7720	49407.66	3.5490	3.5490	-1.4121	25.35	-0.04	-0.050			
0.7734	49497.68	3.5480	3.5481	-1.3777	25.36	-0.03	-0.050			
0.7747	49583.95	3.5470	3.5468	-1.3425	25.36	-0.03	-0.050			
0.7761	49670.55	3.5460	3.5463	-1.3136	25.35	-0.04	-0.050			
0.7774	49753.46	3.5450	3.5450	-1.2785	25.36	-0.03	-0.050			
0.7786	49833.28	3.5440	3.5442	-1.2448	25.35	-0.04	-0.050			
0.7798	49910.37	3.5430	3.5434	-1.2081	25.36	-0.03	-0.050			
0.7810	49985.12	3.5420	3.5420	-1.1802	25.35	-0.04	-0.050	0.403	0.652	
0.7822	50058.83	3.5410	3.5411	-1.1497	25.35	-0.04	-0.050			
0.7833	50129.97	3.5400	3.5402	-1.1268	25.35	-0.04	-0.050			
0.7844	50199.79	3.5390	3.5389	-1.1017	25.35	-0.04	-0.050			
0.7854	50266.69	3.5380	3.5379	-1.0821	25.35	-0.04	-0.050			
0.7865	50333.63	3.5370	3.5372	-1.0666	25.35	-0.04	-0.050			
0.7875	50397.96	3.5360	3.5360	-1.0417	25.34	-0.05	-0.050			
0.7885	50463.03	3.5350	3.5350	-1.0258	25.34	-0.05	-0.050			
0.7895	50525.97	3.5340	3.5339	-1.0187	25.34	-0.05	-0.050			
0.7904	50587.86	3.5330	3.5327	-1.0165	25.34	-0.05	-0.050			
0.7914	50652.22	3.5320	3.5323	-1.0126	25.33	-0.06	-0.050			
0.7924	50712.91	3.5310	3.5308	-1.0059	25.32	-0.07	-0.050			
0.7934	50777.28	3.5300	3.5302	-1.0077	25.32	-0.07	-0.050			
0.7944	50840.97	3.5290	3.5289	-1.0097	25.32	-0.07	-0.050			
0.7954	50904.79	3.5280	3.5280	-1.0093	25.32	-0.07	-0.050			
0.7964	50968.65	3.5270	3.5274	-1.0160	25.32	-0.07	-0.050			
0.7974	51033.26	3.5260	3.5256	-1.0195	25.31	-0.08	-0.050			
0.7984	51099.30	3.5250	3.5246	-1.0227	25.31	-0.08	-0.050			
0.7995	51166.04	3.5240	3.5240	-1.0255	25.32	-0.07	-0.050			
0.8005	51233.50	3.5230	3.5232	-1.0264	25.31	-0.08	-0.050			
0.8016	51300.18	3.5220	3.5218	-1.0233	25.31	-0.08	-0.050			
0.8026	51367.24	3.5210	3.5212	-1.0188	25.31	-0.08	-0.050			
0.8037	51433.95	3.5200	3.5199	-1.0169	25.30	-0.09	-0.050			
0.8047	51502.46	3.5190	3.5190	-1.0100	25.31	-0.08	-0.050			
0.8058	51568.11	3.5180	3.5180	-0.9994	25.30	-0.09	-0.050			
0.8068	51634.25	3.5170	3.5170	-0.9909	25.30	-0.09	-0.050			
0.8078	51697.57	3.5160	3.5161	-0.9742	25.30	-0.09	-0.050			
0.8088	51762.99	3.5150	3.5151	-0.9594	25.30	-0.09	-0.050			
0.8097	51821.94	3.5140	3.5141	-0.9422	25.30	-0.09	-0.050			
0.8107	51881.95	3.5130	3.5130	-0.9258	25.30	-0.09	-0.050			
0.8116	51940.77	3.5120	3.5118	-0.9152	25.30	-0.09	-0.050			
0.8125	51998.56	3.5110	3.5111	-0.9000	25.30	-0.09	-0.050			
0.8133	52054.05	3.5100	3.5102	-0.8888	25.30	-0.09	-0.050			
0.8142	52109.59	3.5090	3.5090	-0.8756	25.30	-0.09	-0.050			
0.8150	52162.97	3.5080	3.5079	-0.8628	25.30	-0.09	-0.050			
0.8159	52215.38	3.5070	3.5068	-0.8501	25.29	-0.10	-0.050			
0.8167	52267.66	3.5060	3.5060	-0.8468	25.30	-0.09	-0.050			
0.8175	52320.34	3.5050	3.5047	-0.8426	25.29	-0.10	-0.050			
0.8183	52370.62	3.5040	3.5041	-0.8455	25.30	-0.09	-0.050			
0.8191	52422.00	3.5030	3.5029	-0.8551	25.29	-0.10	-0.050			
0.8199	52473.49	3.5020	3.5020	-0.8697	25.30	-0.09	-0.050			
0.8207	52523.88	3.5010	3.5010	-0.8841	25.30	-0.09	-0.050	0.624	0.802	
0.8215	52574.89	3.5000	3.5001	-0.9150	25.30	-0.09	-0.050			
0.8223	52625.34	3.4990	3.4992	-0.9493	25.30	-0.09	-0.050			
0.8231	52678.88	3.4980	3.4983	-0.9984	25.29	-0.10	-0.050			
0.8240	52735.06	3.4970	3.4973	-1.0580	25.29	-0.10	-0.050			
0.8249	52791.92	3.4960	3.4960	-1.1377	25.29	-0.10	-0.050			
0.8258	52853.46	3.4950	3.4950	-1.2319	25.29	-0.10	-0.050			
0.8269	52923.88	3.4940	3.4944	-1.3136	25.29	-0.10	-0.050			
0.8282	53003.68	3.4930	3.4933	-1.4223	25.29	-0.10	-0.050			
0.8295	53089.45	3.4920	3.4921	-1.5262	25.29	-0.10	-0.050			
0.8311	53189.80	3.4910	3.4910	-1.6478	25.29	-0.10	-0.050			
0.8328	53300.64	3.4900	3.4898	-1.7635	25.30	-0.09	-0.050			
0.8347	53421.58	3.4890	3.4889	-1.8883	25.29	-0.10	-0.050			
0.8368	53554.02	3.4880	3.4878	-2.0023	25.29	-0.10	-0.050			
0.8390	53695.49	3.4870	3.4868	-2.1021	25.29	-0.10	-0.050			
0.8413	53843.51	3.4860	3.4859	-2.2053	25.29	-0.10	-0.050	0.483	0.746	
0.8436	53993.48	3.4850	3.4850	-2.2942	25.29	-0.10	-0.050			
0.8461	54153.13	3.4840	3.4839	-2.3758	25.29	-0.10	-0.050			
0.8487	54319.38	3.4830	3.4828	-2.4422	25.29	-0.10	-0.050			
0.8514	54489.41	3.4820	3.4821	-2.4840	25.29	-0.10	-0.050			
0.8540	54659.07	3.4810	3.4812	-2.5136	25.29	-0.10	-0.050			
0.8567	54831.75	3.4800	3.4801	-2.5284	25.29	-0.10	-0.050			
0.8594	55000.67	3.4790	3.4789	-2.5231	25.28	-0.11	-0.050	0.360	0.670	
0.8620	55168.06	3.4780	3.4781	-2.5074	25.29	-0.10	-0.050			
0.8646	55332.14	3.4770	3.4771	-2.4777	25.30	-0.09	-0.050			
0.8671	55494.90	3.4760	3.4761	-2.4406	25.29	-0.10	-0.050			
0.8696	55654.48	3.4750	3.4750	-2.4057	25.29	-0.10	-0.050			
0.8720	55808.85	3.4740	3.4740	-2.3589	25.29	-0.10	-0.050			
0.8744	55960.01	3.4730	3.4729	-2.3081	25.29	-0.10	-0.050			
0.8767	56107.82	3.4720	3.4721	-2.2541	25.29	-0.10	-0.050			
0.8790	56252.87	3.4710	3.4710	-2.1988	25.29	-0.10	-0.050			
0.8812	56393.69	3.4700	3.4700	-2.1400	25.29	-0.10	-0.050	0.516	0.621	
0.8833	56531.01	3.4690	3.4691	-2.0753	25.30	-0.09	-0.050			
0.8854	56663.28	3.4680	3.4679	-2.0111	25.29	-0.10	-0.050			
0.8873	56790.21	3.4670	3.4671	-1.9410	25.30	-0.09	-0.050			
0.8892	56911.69	3.4660	3.4661	-1.8704	25.29	-0.10	-0.050			
0.8911	57029.82	3.4650	3.4653	-1.8025	25.30	-0.09	-0.050			
0.8929	57145.08	3.4640	3.4642	-1.7334	25.30	-0.09	-0.050			
0.8946	57254.98	3.4630	3.4628	-1.6656	25.30	-0.09	-0.050			
0.8962	57358.09	3.4620	3.4621	-1.5890	25.31	-0.08	-0.050			
0.8978	57459.46	3.4610	3.4610	-1.5203	25.30	-0.09	-0.050			
0.8993	57554.79	3.4600	3.4599	-1.4482	25.31	-0.08	-0.050			
0.9007	57645.39	3.4590	3.4588	-1.3753	25.31	-0.08	-0.050			
0.9020	57730.35	3.4580	3.4579	-1.3070	25.31	-0.08	-0.050			
0.9033	57808.82	3.4570	3.4568	-1.2344	25.32	-0.07	-0.050			
0.9044	57884.54	3.4560	3.4561	-1.1670	25.31	-0.08	-0.050			
0.9055	57954.26	3.4550	3.4549	-1.1008	25.32	-0.07	-0.050			
0.9066	58021.44	3.4540	3.4541	-1.0404	25.31	-0.08	-0.050			
0.9076	58084.64	3.4530	3.4532	-0.9765	25.31	-0.08	-0.050			
0.9085	58143.95	3.4520	3.4521	-0.9219	25.32	-0.07	-0.050			
0.9094	58198.64	3.4510	3.4509	-0.8697	25.32	-0.07	-0.050			
0.9102	58250.06	3.4500	3.4500	-0.8207	25.32	-0.07	-0.050			
0.9109	58298.78	3.4490	3.4489	-0.7672	25.32	-0.07	-0.050			
0.9116	58344.58	3.4480	3.4479	-0.7268	25.32	-0.07	-0.050			
0.9123	58386.02	3.4470	3.4469	-0.6863	25.32	-0.07	-0.050			
0.9129	58425.98	3.4460	3.4460	-0.6428	25.32	-0.07	-0.050			
0.9135	58462.80	3.4450	3.4450	-0.6097	25.32	-0.07	-0.050			
0.9140	58497.84	3.4440	3.4442	-0.5795	25.33	-0.06	-0.050			
0.9146	58531.76	3.4430	3.4430	-0.5455	25.33	-0.06	-0.050			
0.9151	58564.54	3.4420	3.4420	-0.5229	25.33	-0.06	-0.050			
0.9156	58596.78	3.4410	3.4409	-0.4975	25.33	-0.06	-0.050			
0.9160	58625.26	3.4400	3.4400	-0.4774	25.33	-0.06	-0.050			
0.9165	58654.30	3.4390	3.4389	-0.4555	25.34	-0.05	-0.050			
0.9169	58679.73	3.4380	3.4380	-0.4364	25.34	-0.05	-0.050			
0.9173	58705.15	3.4370	3.4370	-0.4209	25.34	-0.05	-0.050			
0.9177	58730.82	3.4360	3.4359	-0.4050	25.34	-0.05	-0.050			
0.9181	58755.65	3.4350	3.4351	-0.3908	25.34	-0.05	-0.050			
0.9184	58778.91	3.4340	3.4340	-0.3788	25.34	-0.05	-0.050			
0.9188	58802.81	3.4330	3.4329	-0.3681	25.34	-0.05	-0.050			
0.9191	58824.94	3.4320	3.4319	-0.3598	25.35	-0.04	-0.050			
0.9195	58846.90	3.4310	3.4308	-0.3491	25.35	-0.04	-0.050			
0.9198	58867.96	3.4300	3.4299	-0.3400	25.35	-0.04	-0.050			
0.9201	58889.48	3.4290	3.4291	-0.3326	25.35	-0.04	-0.050			
0.9205	58909.84	3.4280	3.4282	-0.3260	25.35	-0.04	-0.050			
0.9208	58930.08	3.4270	3.4271	-0.3184	25.35	-0.04	-0.050	0.250	0.817	
0.9211	58950.26	3.4260	3.4260	-0.3122	25.35	-0.04	-0.050			
0.9214	58969.40	3.4250	3.4250	-0.3078	25.35	-0.04	-0.050			
0.9217	58988.50	3.4240	3.4239	-0.3015	25.35	-0.04	-0.050			
0.9220	59006.92	3.4230	3.4230	-0.2991	25.35	-0.04	-0.050			
0.9223	59025.59	3.4220	3.4219	-0.2945	25.35	-0.04	-0.050			
0.9226	59043.99	3.4210	3.4211	-0.2917	25.36	-0.03	-0.050			
0.9228	59062.05	3.4200	3.4201	-0.2874	25.36	-0.03	-0.050			
0.9231	59080.34	3.4190	3.4189	-0.2846	25.36	-0.03	-0.050			
0.9234	59097.69	3.4180	3.4179	-0.2799	25.36	-0.03	-0.050			
0.9237	59115.44	3.4170	3.4170	-0.2775	25.36	-0.03	-0.050			
0.9240	59133.07	3.4160	3.4159	-0.2758	25.36	-0.03	-0.050			
0.9242	59150.65	3.4150	3.4149	-0.2738	25.37	-0.02	-0.050			
0.9245	59167.60	3.4140	3.4140	-0.2735	25.37	-0.02	-0.050			
0.9248	59185.06	3.4130	3.4129	-0.2721	25.37	-0.02	-0.050			
0.9250	59202.15	3.4120	3.4121	-0.2704	25.37	-0.02	-0.050			
0.9253	59219.42	3.4110	3.4112	-0.2693	25.37	-0.02	-0.050			
0.9256	59236.29	3.4100	3.4099	-0.2676	25.37	-0.02	-0.050			
0.9258	59253.79	3.4090	3.4091	-0.2656	25.37	-0.02	-0.050			
0.9261	59271.15	3.4080	3.4081	-0.2653	25.37	-0.02	-0.050			
0.9264	59288.08	3.4070	3.4069	-0.2638	25.37	-0.02	-0.050			
0.9266	59304.93	3.4060	3.4057	-0.2621	25.37	-0.02	-0.050			
0.9269	59321.67	3.4050	3.4048	-0.2605	25.37	-0.02	-0.050			
0.9272	59338.37	3.4040	3.4039	-0.2586	25.37	-0.02	-0.050			
0.9274	59354.76	3.4030	3.4031	-0.2566	25.38	-0.01	-0.050			
0.9277	59371.13	3.4020	3.4023	-0.2550	25.38	-0.01	-0.050			
0.9279	59387.62	3.4010	3.4010	-0.2521	25.38	-0.01	-0.050			
0.9282	59403.69	3.4000	3.4001	-0.2502	25.38	-0.01	-0.050			
0.9284	59420.32	3.3990	3.3991	-0.2496	25.38	-0.01	-0.050			
0.9287	59435.89	3.3980	3.3981	-0.2481	25.38	-0.01	-0.050			
0.9289	59451.70	3.3970	3.3970	-0.2459	25.38	-0.01	-0.050			
0.9292	59467.20	3.3960	3.3958	-0.2455	25.39	-0.00	-0.050			
0.9294	59482.85	3.3950	3.3949	-0.2436	25.39	0.00	-0.050			
0.9297	59497.92	3.3940	3.3941	-0.2408	25.39	0.00	-0.050			
0.9299	59512.95	3.3930	3.3931	-0.2403	25.39	0.00	-0.050			
0.9301	59527.57	3.3920	3.3920	-0.2373	25.39	0.00	-0.050			
0.9304	59542.75	3.3910	3.3912	-0.2369	25.39	0.00	-0.050			
0.9306	59558.07	3.3900	3.3900	-0.2359	25.39	0.00	-0.050			
0.9308	59573.11	3.3890	3.3889	-0.2352	25.39	0.00	-0.050			
0.9311	59588.24	3.3880	3.3878	-0.2344	25.39	0.00	-0.050			
0.9313	59603.22	3.3870	3.3870	-0.2338	25.39	0.00	-0.050			
0.9315	59618.22	3.3860	3.3860	-0.2332	25.39	0.00	-0.050			
0.9318	59633.29	3.3850	3.3850	-0.2320	25.39	0.00	-0.050			
0.9320	59648.02	3.3840	3.3841	-0.2309	25.39	0.00	-0.050			
0.9322	59662.77	3.3830	3.3830	-0.2301	25.39	0.00	-0.050			
0.9325	59677.63	3.3820	3.3820	-0.2287	25.40	0.01	-0.050			
0.9327	59692.53	3.3810	3.3812	-0.2284	25.40	0.01	-0.050			
0.9329	59707.11	3.3800	3.3800	-0.2271	25.40	0.01	-0.050			
0.9331	59721.58	3.3790	3.3791	-0.2260	25.40	0.01	-0.050			
0.9334	59736.44	3.3780	3.3778	-0.2256	25.40	0.01	-0.050			
0.9336	59750.82	3.3770	3.3770	-0.2240	25.40	0.01	-0.050			
0.9338	59764.73	3.3760	3.3760	-0.2226	25.40	0.01	-0.050			
0.9340	59778.94	3.3750	3.3751	-0.2214	25.40	0.01	-0.050			
0.9343	59793.08	3.3740	3.3739	-0.2202	25.40	0.01	-0.050			
0.9345	59806.91	3.3730	3.3729	-0.2188	25.40	0.01	-0.050			
0.9347	59820.89	3.3720	3.3721	-0.2179	25.40	0.01	-0.050			
0.9349	59834.80	3.3710	3.3709	-0.2169	25.40	0.01	-0.050			
0.9351	59848.36	3.3700	3.3699	-0.2162	25.40	0.01	-0.050			
0.9353	59862.18	3.3690	3.3691	-0.2156	25.40	0.01	-0.050			
0.9356	59875.95	3.3680	3.3680	-0.2149	25.40	0.01	-0.050			
0.9358	59889.40	3.3670	3.3671	-0.2151	25.40	0.01	-0.050			
0.9360	59903.16	3.3660	3.3660	-0.2147	25.40	0.01	-0.050			
0.9362	59916.60	3.3650	3.3652	-0.2139	25.40	0.01	-0.050			
0.9364	59930.25	3.3640	3.3641	-0.2140	25.40	0.01	-0.050			
0.9366	59943.94	3.3630	3.3628	-0.2139	25.41	0.02	-0.050			
0.9368	59958.20	3.3620	3.3621	-0.2124	25.41	0.02	-0.050			
0.9371	59971.78	3.3610	3.3607	-0.2119	25.41	0.02	-0.050			
0.9373	59985.32	3.3600	3.3599	-0.2113	25.41	0.02	-0.050			
0.9375	59999.00	3.3590	3.3591	-0.2109	25.41	0.02	-0.050			
0.9377	60012.72	3.3580	3.3579	-0.2094	25.41	0.02	-0.050			
0.9379	60026.09	3.3570	3.3568	-0.2084	25.41	0.02	-0.050			
0.9381	60039.65	3.3560	3.3560	-0.2078	25.41	0.02	-0.050			
0.9383	60052.76	3.3550	3.3550	-0.2071	25.42	0.03	-0.050			
0.9385	60065.98	3.3540	3.3541	-0.2060	25.42	0.03	-0.050			
0.9387	60079.40	3.3530	3.3533	-0.2053	25.42	0.03	-0.050			
0.9389	60092.40	3.3520	3.3523	-0.2042	25.42	0.03	-0.050			
0.9391	60105.43	3.3510	3.3510	-0.2030	25.41	0.02	-0.050			
0.9394	60118.62	3.3500	3.3498	-0.2021	25.41	0.02	-0.050			
0.9396	60131.32	3.3490	3.3488	-0.2012	25.41	0.02	-0.050			
0.9398	60144.16	3.3480	3.3480	-0.2000	25.41	0.02	-0.050			
0.9399	60156.69	3.3470	3.3469	-0.1984	25.42	0.03	-0.050			
0.9401	60169.36	3.3460	3.3459	-0.1974	25.42	0.03	-0.050			
0.9403	60181.98	3.3450	3.3449	-0.1962	25.42	0.03	-0.050			
0.9405	60194.14	3.3440	3.3438	-0.1945	25.42	0.03	-0.050			
0.9407	60206.57	3.3430	3.3430	-0.1937	25.42	0.03	-0.050	0.335	0.701	
0.9409	60218.80	3.3420	3.3419	-0.1927	25.42	0.03	-0.050			
0.9411	60231.12	3.3410	3.3406	-0.1921	25.42	0.03	-0.050			
0.9413	60243.39	3.3400	3.3398	-0.1915	25.42	0.03	-0.050			
0.9415	60255.70	3.3390	3.3392	-0.1906	25.41	0.02	-0.050			
0.9417	60268.27	3.3380	3.3381	-0.1907	25.41	0.02	-0.050			
0.9419	60280.44	3.3370	3.3371	-0.1897	25.41	0.02	-0.050			
0.9421	60292.54	3.3360	3.3361	-0.1886	25.41	0.02	-0.050			
0.9423	60304.40	3.3350	3.3349	-0.1879	25.41	0.02	-0.050			
0.9424	60316.40	3.3340	3.3337	-0.1871	25.42	0.03	-0.050			
0.9426	60328.35	3.3330	3.3330	-0.1863	25.42	0.03	-0.050			
0.9428	60339.90	3.3320	3.3321	-0.1852	25.42	0.03	-0.050			
0.9430	60351.74	3.3310	3.3311	-0.1847	25.42	0.03	-0.050			
0.9432	60363.54	3.3300	3.3302	-0.1842	25.43	0.04	-0.050			
0.9434	60375.28	3.3290	3.3290	-0.1836	25.43	0.04	-0.050			
0.9435	60386.88	3.3280	3.3279	-0.1835	25.43	0.04	-0.050			
0.9437	60398.61	3.3270	3.3268	-0.1831	25.43	0.04	-0.050			
0.9439	60410.32	3.3260	3.3261	-0.1828	25.43	0.04	-0.050			
0.9441	60422.12	3.3250	3.3251	-0.1817	25.42	0.03	-0.050			
0.9443	60433.73	3.3240	3.3240	-0.1812	25.42	0.03	-0.050			
0.9445	60445.31	3.3230	3.3231	-0.1807	25.42	0.03	-0.050			
0.9446	60457.00	3.3220	3.3219	-0.1804	25.42	0.03	-0.050			
0.9448	60468.57	3.3210	3.3209	-0.1798	25.43	0.04	-0.050			
0.9450	60480.05	3.3200	3.3201	-0.1791	25.43	0.04	-0.050			
0.9452	60491.47	3.3190	3.3191	-0.1785	25.43	0.04	-0.050			
0.9454	60503.10	3.3180	3.3178	-0.1774	25.43	0.04	-0.050			
0.9455	60514.42	3.3170	3.3169	-0.1765	25.43	0.04	-0.050			
0.9457	60525.70	3.3160	3.3161	-0.1757	25.43	0.04	-0.050			
0.9459	60537.19	3.3150	3.3151	-0.1753	25.43	0.04	-0.050			
0.9461	60548.17	3.3140	3.3139	-0.1748	25.43	0.04	-0.050			
0.9462	60559.33	3.3130	3.3128	-0.1740	25.43	0.04	-0.050			
0.9464	60570.46	3.3120	3.3119	-0.1732	25.43	0.04	-0.050			
0.9466	60581.52	3.3110	3.3111	-0.1723	25.42	0.03	-0.050			
0.9468	60592.38	3.3100	3.3102	-0.1719	25.42	0.03	-0.050			
0.9469	60603.36	3.3090	3.3091	-0.1712	25.42	0.03	-0.050			
0.9471	60614.14	3.3080	3.3082	-0.1702	25.42	0.03	-0.050			
0.9473	60625.02	3.3070	3.3069	-0.1696	25.42	0.03	-0.050			
0.9474	60635.53	3.3060	3.3058	-0.1703	25.43	0.04	-0.050			
0.9476	60646.04	3.3050	3.3049	-0.1692	25.43	0.04	-0.050			
0.9478	60656.86	3.3040	3.3040	-0.1692	25.43	0.04	-0.050			
0.9479	60668.02	3.3030	3.3031	-0.1684	25.43	0.04	-0.050			
0.9481	60678.79	3.3020	3.3022	-0.1682	25.43	0.04	-0.050			
0.9483	60689.60	3.3010	3.3010	-0.1680	25.42	0.03	-0.050			
0.9484	60700.35	3.3000	3.2999	-0.1678	25.42	0.03	-0.050			
0.9486	60711.05	3.2990	3.2990	-0.1676	25.42	0.03	-0.050			
0.9488	60721.72	3.2980	3.2981	-0.1672	25.42	0.03	-0.050			
0.9489	60732.42	3.2970	3.2970	-0.1670	25.42	0.03	-0.050			
0.9491	60743.10	3.2960	3.2959	-0.1668	25.43	0.04	-0.050			
0.9493	60754.03	3.2950	3.2950	-0.1657	25.43	0.04	-0.050			
0.9495	60764.97	3.2940	3.2941	-0.1661	25.43	0.04	-0.050			
0.9496	60775.57	3.2930	3.2931	-0.1653	25.43	0.04	-0.050			
0.9498	60786.13	3.2920	3.2921	-0.1646	25.43	0.04	-0.050			
0.9500	60796.88	3.2910	3.2910	-0.1630	25.43	0.04	-0.050			
0.9501	60807.47	3.2900	3.2898	-0.1624	25.43	0.04	-0.050			
0.9503	60817.83	3.2890	3.2888	-0.1613	25.43	0.04	-0.050			
0.9504	60828.11	3.2880	3.2880	-0.1602	25.43	0.04	-0.050			
0.9506	60838.10	3.2870	3.2872	-0.1599	25.43	0.04	-0.050			
0.9508	60848.42	3.2860	3.2861	-0.1593	25.44	0.05	-0.050			
0.9509	60858.58	3.2850	3.2850	-0.1583	25.44	0.05	-0.050			
0.9511	60868.68	3.2840	3.2841	-0.1573	25.44	0.05	-0.050			
0.9512	60878.23	3.2830	3.2832	-0.1561	25.44	0.05	-0.050			
0.9514	60888.20	3.2820	3.2821	-0.1555	25.44	0.05	-0.050			
0.9515	60898.14	3.2810	3.2810	-0.1550	25.43	0.04	-0.050			
0.9517	60908.03	3.2800	3.2799	-0.1544	25.43	0.04	-0.050			
0.9518	60917.70	3.2790	3.2789	-0.1544	25.43	0.04	-0.050			
0.9520	60927.56	3.2780	3.2779	-0.1540	25.43	0.04	-0.050			
0.9521	60937.41	3.2770	3.2769	-0.1536	25.43	0.04	-0.050			
0.9523	60947.22	3.2760	3.2758	-0.1532	25.43	0.04	-0.050			
0.9524	60956.75	3.2750	3.2750	-0.1516	25.43	0.04	-0.050			
0.9526	60966.45	3.2740	3.2741	-0.1515	25.43	0.04	-0.050			
0.9528	60976.13	3.2730	3.2731	-0.1513	25.43	0.04	-0.050			
0.9529	60985.81	3.2720	3.2720	-0.1511	25.43	0.04	-0.050			
0.9531	60995.59	3.2710	3.2711	-0.1511	25.43	0.04	-0.050			
0.9532	61005.33	3.2700	3.2700	-0.1507	25.44	0.05	-0.050			
0.9534	61014.96	3.2690	3.2688	-0.1503	25.44	0.05	-0.050			
0.9535	61024.57	3.2680	3.2680	-0.1500	25.44	0.05	-0.050			
0.9537	61034.54	3.2670	3.2670	-0.1502	25.44	0.05	-0.050			
0.9538	61044.06	3.2660	3.2660	-0.1498	25.44	0.05	-0.050			
0.9540	61053.63	3.2650	3.2651	-0.1492	25.44	0.05	-0.050			
0.9541	61063.16	3.2640	3.2641	-0.1487	25.44	0.05	-0.050			
0.9543	61072.52	3.2630	3.2631	-0.1479	25.44	0.05	-0.050			
0.9544	61082.00	3.2620	3.2620	-0.1474	25.44	0.05	-0.050			
0.9546	61091.42	3.2610	3.2611	-0.1469	25.44	0.05	-0.050			
0.9547	61100.80	3.2600	3.2599	-0.1464	25.44	0.05	-0.050			
0.9548	61110.23	3.2590	3.2589	-0.1461	25.44	0.05	-0.050			
0.9550	61119.56	3.2580	3.2581	-0.1456	25.44	0.05	-0.050			
0.9551	61128.96	3.2570	3.2570	-0.1448	25.44	0.05	-0.050			
0.9553	61138.21	3.2560	3.2560	-0.1442	25.44	0.05	-0.050			
0.9554	61147.35	3.2550	3.2549	-0.1434	25.44	0.05	-0.050			
0.9556	61156.51	3.2540	3.2540	-0.1428	25.44	0.05	-0.050			
0.9557	61165.64	3.2530	3.2530	-0.1423	25.44	0.05	-0.050			
0.9559	61174.73	3.2520	3.2519	-0.1417	25.44	0.05	-0.050			
0.9560	61183.78	3.2510	3.2510	-0.1411	25.44	0.05	-0.050			
0.9561	61192.98	3.2500	3.2500	-0.1408	25.44	0.05	-0.050			
0.9563	61201.97	3.2490	3.2490	-0.1401	25.44	0.05	-0.050			
0.9564	61210.73	3.2480	3.2480	-0.1399	25.44	0.05	-0.050			
0.9566	61219.67	3.2470	3.2471	-0.1394	25.44	0.05	-0.050			
0.9567	61228.46	3.2460	3.2461	-0.1386	25.44	0.05	-0.050			
0.9568	61237.32	3.2450	3.2451	-0.1381	25.44	0.05	-0.050			
0.9570	61246.14	3.2440	3.2439	-0.1377	25.44	0.05	-0.050			
0.9571	61254.74	3.2430	3.2428	-0.1379	25.44	0.05	-0.050			
0.9572	61263.34	3.2420	3.2420	-0.1371	25.44	0.05	-0.050			
0.9574	61272.11	3.2410	3.2411	-0.1370	25.45	0.06	-0.050			
0.9575	61280.87	3.2400	3.2401	-0.1369	25.45	0.06	-0.050			
0.9577	61289.91	3.2390	3.2389	-0.1360	25.45	0.06	-0.050			
0.9578	61298.60	3.2380	3.2379	-0.1357	25.45	0.06	-0.050			
0.9579	61307.25	3.2370	3.2369	-0.1353	25.45	0.06	-0.050			
0.9581	61315.90	3.2360	3.2361	-0.1350	25.45	0.06	-0.050			
0.9582	61324.52	3.2350	3.2352	-0.1346	25.45	0.06	-0.050			
0.9583	61333.31	3.2340	3.2341	-0.1337	25.45	0.06	-0.050			
0.9585	61342.08	3.2330	3.2328	-0.1339	25.45	0.06	-0.050			
0.9586	61350.63	3.2320	3.2320	-0.1333	25.45	0.06	-0.050			
0.9587	61359.14	3.2310	3.2312	-0.1326	25.45	0.06	-0.050			
0.9589	61367.61	3.2300	3.2302	-0.1320	25.45	0.06	-0.050			
0.9590	61375.83	3.2290	3.2291	-0.1322	25.45	0.06	-0.050			
0.9591	61384.33	3.2280	3.2280	-0.1318	25.45	0.06	-0.050			
0.9593	61392.75	3.2270	3.2270	-0.1313	25.45	0.06	-0.050			
0.9594	61401.14	3.2260	3.2260	-0.1308	25.45	0.06	-0.050			
0.9595	61409.68	3.2250	3.2251	-0.1298	25.45	0.06	-0.050			
0.9597	61417.97	3.2240	3.2240	-0.1292	25.45	0.06	-0.050			
0.9598	61426.22	3.2230	3.2227	-0.1286	25.45	0.06	-0.050			
0.9599	61434.43	3.2220	3.2219	-0.1279	25.45	0.06	-0.050			
0.9600	61442.60	3.2210	3.2210	-0.1273	25.45	0.06	-0.050			
0.9602	61450.73	3.2200	3.2200	-0.1267	25.45	0.06	-0.050			
0.9603	61458.51	3.2190	3.2189	-0.1260	25.45	0.06	-0.050			
0.9604	61466.57	3.2180	3.2176	-0.1256	25.45	0.06	-0.050			
0.9605	61474.59	3.2170	3.2168	-0.1252	25.45	0.06	-0.050			
0.9607	61482.60	3.2160	3.2160	-0.1249	25.45	0.06	-0.050			
0.9608	61490.58	3.2150	3.2153	-0.1245	25.45	0.06	-0.050	0.309	0.711	
0.9609	61498.49	3.2140	3.2140	-0.1248	25.45	0.06	-0.050			
0.9610	61506.46	3.2130	3.2131	-0.1245	25.45	0.06	-0.050			
0.9612	61514.42	3.2120	3.2119	-0.1241	25.45	0.06	-0.050			
0.9613	61522.35	3.2110	3.2108	-0.1238	25.45	0.06	-0.050			
0.9614	61530.27	3.2100	3.2101	-0.1235	25.45	0.06	-0.050			
0.9615	61537.96	3.2090	3.2091	-0.1231	25.45	0.06	-0.050			
0.9617	61545.83	3.2080	3.2078	-0.1230	25.45	0.06	-0.050			
0.9618	61553.70	3.2070	3.2069	-0.1228	25.45	0.06	-0.050			
0.9619	61561.55	3.2060	3.2060	-0.1226	25.45	0.06	-0.050			
0.9620	61568.99	3.2050	3.2052	-0.1217	25.45	0.06	-0.050			
0.9621	61576.78	3.2040	3.2042	-0.1219	25.45	0.06	-0.050			
0.9623	61584.93	3.2030	3.2029	-0.1210	25.45	0.06	-0.050			
0.9624	61592.67	3.2020	3.2019	-0.1208	25.46	0.07	-0.050			
0.9625	61600.40	3.2010	3.2011	-0.1207	25.46	0.07	-0.050			
0.9626	61608.11	3.2000	3.2002	-0.1205	25.46	0.07	-0.050			
0.9628	61616.46	3.1990	3.1990	-0.1208	25.46	0.07	-0.050			
0.9629	61624.34	3.1980	3.1977	-0.1199	25.46	0.07	-0.050			
0.9630	61631.99	3.1970	3.1967	-0.1192	25.46	0.07	-0.050			
0.9631	61639.60	3.1960	3.1959	-0.1185	25.46	0.07	-0.050			
0.9632	61647.16	3.1950	3.1949	-0.1178	25.45	0.06	-0.050			
0.9634	61654.86	3.1940	3.1940	-0.1172	25.45	0.06	-0.050			
0.9635	61662.07	3.1930	3.1932	-0.1170	25.45	0.06	-0.050			
0.9636	61669.54	3.1920	3.1921	-0.1163	25.45	0.06	-0.050			
0.9637	61676.96	3.1910	3.1911	-0.1157	25.45	0.06	-0.050			
0.9638	61684.34	3.1900	3.1900	-0.1150	25.45	0.06	-0.050			
0.9639	61691.61	3.1890	3.1888	-0.1142	25.45	0.06	-0.050			
0.9640	61698.90	3.1880	3.1879	-0.1136	25.46	0.07	-0.050			
0.9642	61705.80	3.1870	3.1872	-0.1139	25.46	0.07	-0.050			
0.9643	61713.08	3.1860	3.1860	-0.1136	25.46	0.07	-0.050			
0.9644	61720.34	3.1850	3.1851	-0.1133	25.46	0.07	-0.050			
0.9645	61727.58	3.1840	3.1840	-0.1129	25.46	0.07	-0.050			
0.9646	61734.31	3.1830	3.1829	-0.1121	25.46	0.07	-0.050			
0.9647	61741.48	3.1820	3.1819	-0.1120	25.46	0.07	-0.050			
0.9648	61748.64	3.1810	3.1810	-0.1121	25.45	0.06	-0.050			
0.9649	61755.81	3.1800	3.1801	-0.1120	25.45	0.06	-0.050			
0.9650	61762.98	3.1790	3.1790	-0.1120	25.45	0.06	-0.050			
0.9652	61769.95	3.1780	3.1779	-0.1118	25.45	0.06	-0.050			
0.9653	61777.11	3.1770	3.1769	-0.1119	25.45	0.06	-0.050			
0.9654	61784.76	3.1760	3.1760	-0.1109	25.45	0.06	-0.050			
0.9655	61791.85	3.1750	3.1752	-0.1107	25.45	0.06	-0.050			
0.9656	61798.93	3.1740	3.1743	-0.1104	25.45	0.06	-0.050			
0.9657	61806.32	3.1730	3.1730	-0.1108	25.46	0.07	-0.050			
0.9658	61813.39	3.1720	3.1718	-0.1103	25.46	0.07	-0.050			
0.9659	61820.44	3.1710	3.1710	-0.1099	25.46	0.07	-0.050			
0.9661	61827.43	3.1700	3.1698	-0.1095	25.46	0.07	-0.050			
0.9662	61834.43	3.1690	3.1690	-0.1091	25.46	0.07	-0.050			
0.9663	61841.39	3.1680	3.1681	-0.1086	25.46	0.07	-0.050			
0.9664	61848.57	3.1670	3.1670	-0.1086	25.46	0.07	-0.050			
0.9665	61855.51	3.1660	3.1660	-0.1080	25.46	0.07	-0.050			
0.9666	61862.40	3.1650	3.1651	-0.1075	25.46	0.07	-0.050			
0.9667	61869.17	3.1640	3.1642	-0.1071	25.46	0.07	-0.050			
0.9668	61876.01	3.1630	3.1630	-0.1066	25.46	0.07	-0.050			
0.9669	61882.82	3.1620	3.1620	-0.1061	25.46	0.07	-0.050			
0.9670	61889.46	3.1610	3.1610	-0.1053	25.46	0.07	-0.050			
0.9671	61896.19	3.1600	3.1599	-0.1049	25.46	0.07	-0.050			
0.9672	61902.89	3.1590	3.1588	-0.1045	25.46	0.07	-0.050			
0.9673	61909.56	3.1580	3.1579	-0.1040	25.47	0.08	-0.050			
0.9674	61916.06	3.1570	3.1571	-0.1042	25.47	0.08	-0.050			
0.9675	61922.43	3.1560	3.1561	-0.1033	25.47	0.08	-0.050			
0.9676	61929.04	3.1550	3.1549	-0.1032	25.47	0.08	-0.050			
0.9677	61935.64	3.1540	3.1541	-0.1031	25.47	0.08	-0.050			
0.9678	61942.23	3.1530	3.1530	-0.1029	25.47	0.08	-0.050			
0.9680	61948.96	3.1520	3.1520	-0.1024	25.47	0.08	-0.050			
0.9681	61955.51	3.1510	3.1511	-0.1021	25.47	0.08	-0.050			
0.9682	61962.19	3.1500	3.1501	-0.1022	25.47	0.08	-0.050			
0.9683	61968.72	3.1490	3.1489	-0.1019	25.47	0.08	-0.050			
0.9684	61975.23	3.1480	3.1478	-0.1015	25.47	0.08	-0.050			
0.9685	61981.71	3.1470	3.1469	-0.1012	25.47	0.08	-0.050			
0.9686	61988.23	3.1460	3.1459	-0.1007	25.47	0.08	-0.050			
0.9687	61994.66	3.1450	3.1452	-0.1003	25.47	0.08	-0.050			
0.9688	62001.06	3.1440	3.1444	-0.1000	25.47	0.08	-0.050			
0.9689	62007.45	3.1430	3.1430	-0.0996	25.47	0.08	-0.050			
0.9690	62013.81	3.1420	3.1419	-0.0993	25.47	0.08	-0.050			
0.9691	62020.15	3.1410	3.1409	-0.0989	25.46	0.07	-0.050			
0.9692	62026.47	3.1400	3.1399	-0.0985	25.46	0.07	-0.050			
0.9693	62032.71	3.1390	3.1388	-0.0984	25.46	0.07	-0.050			
0.9694	62038.99	3.1380	3.1381	-0.0981	25.46	0.07	-0.050			
0.9695	62045.34	3.1370	3.1371	-0.0979	25.46	0.07	-0.050			
0.9696	62051.60	3.1360	3.1360	-0.0976	25.46	0.07	-0.050			
0.9697	62057.84	3.1350	3.1350	-0.0972	25.46	0.07	-0.050			
0.9698	62064.05	3.1340	3.1340	-0.0969	25.46	0.07	-0.050			
0.9698	62070.24	3.1330	3.1330	-0.0965	25.47	0.08	-0.050			
0.9699	62076.37	3.1320	3.1319	-0.0956	25.47	0.08	-0.050			
0.9700	62082.48	3.1310	3.1309	-0.0953	25.47	0.08	-0.050			
0.9701	62088.57	3.1300	3.1299	-0.0950	25.47	0.08	-0.050			
0.9702	62094.64	3.1290	3.1291	-0.0946	25.47	0.08	-0.050			
0.9703	62100.68	3.1280	3.1280	-0.0943	25.47	0.08	-0.050			
0.9704	62106.70	3.1270	3.1270	-0.0939	25.47	0.08	-0.050			
0.9705	62112.42	3.1260	3.1260	-0.0942	25.47	0.08	-0.050			
0.9706	62118.44	3.1250	3.1250	-0.0940	25.47	0.08	-0.050			
0.9707	62124.46	3.1240	3.1241	-0.0939	25.47	0.08	-0.050			
0.9708	62130.46	3.1230	3.1231	-0.0937	25.47	0.08	-0.050			
0.9709	62136.45	3.1220	3.1221	-0.0936	25.47	0.08	-0.050			
0.9710	62142.44	3.1210	3.1211	-0.0934	25.47	0.08	-0.050			
0.9711	62148.55	3.1200	3.1201	-0.0928	25.47	0.08	-0.050			
0.9712	62154.50	3.1190	3.1189	-0.0926	25.47	0.08	-0.050			
0.9713	62160.41	3.1180	3.1178	-0.0923	25.47	0.08	-0.050			
0.9713	62166.31	3.1170	3.1168	-0.0920	25.47	0.08	-0.050			
0.9714	62172.19	3.1160	3.1158	-0.0918	25.47	0.08	-0.050			
0.9715	62178.06	3.1150	3.1149	-0.0915	25.47	0.08	-0.050			
0.9716	62183.91	3.1140	3.1139	-0.0913	25.47	0.08	-0.050			
0.9717	62189.79	3.1130	3.1129	-0.0908	25.47	0.08	-0.050			
0.9718	62195.62	3.1120	3.1121	-0.0905	25.47	0.08	-0.050			
0.9719	62201.40	3.1110	3.1114	-0.0902	25.47	0.08	-0.050			
0.9720	62207.16	3.1100	3.1102	-0.0899	25.47	0.08	-0.050			
0.9721	62212.90	3.1090	3.1091	-0.0896	25.47	0.08	-0.050			
0.9722	62218.62	3.1080	3.1081	-0.0892	25.47	0.08	-0.050			
0.9723	62224.29	3.1070	3.1071	-0.0890	25.47	0.08	-0.050			
0.9723	62230.18	3.1060	3.1059	-0.0893	25.47	0.08	-0.050			
0.9724	62235.88	3.1050	3.1049	-0.0888	25.47	0.08	-0.050			
0.9725	62241.55	3.1040	3.1039	-0.0884	25.47	0.08	-0.050			
0.9726	62247.19	3.1030	3.1030	-0.0880	25.47	0.08	-0.050			
0.9727	62252.81	3.1020	3.1021	-0.0876	25.47	0.08	-0.050			
0.9728	62258.25	3.1010	3.1011	-0.0876	25.47	0.08	-0.050			
0.9729	62263.61	3.1000	3.1000	-0.0864	25.47	0.08	-0.050			
0.9730	62269.13	3.0990	3.0991	-0.0862	25.47	0.08	-0.050			
0.9730	62274.64	3.0980	3.0981	-0.0860	25.47	0.08	-0.050			
0.9731	62280.14	3.0970	3.0970	-0.0859	25.47	0.08	-0.050			
0.9732	62285.63	3.0960	3.0958	-0.0857	25.47	0.08	-0.050			
0.9733	62291.12	3.0950	3.0949	-0.0856	25.47	0.08	-0.050			
0.9734	62296.59	3.0940	3.0940	-0.0854	25.47	0.08	-0.050			
0.9735	62302.26	3.0930	3.0931	-0.0852	25.47	0.08	-0.050			
0.9736	62307.71	3.0920	3.0922	-0.0849	25.47	0.08	-0.050			
0.9736	62313.13	3.0910	3.0909	-0.0846	25.47	0.08	-0.050			
0.9737	62318.53	3.0900	3.0898	-0.0843	25.47	0.08	-0.050			
0.9738	62323.92	3.0890	3.0890	-0.0840	25.47	0.08	-0.050			
0.9739	62329.28	3.0880	3.0881	-0.0837	25.47	0.08	-0.050			
0.9740	62334.74	3.0870	3.0870	-0.0835	25.47	0.08	-0.050			
0.9741	62340.07	3.0860	3.0860	-0.0832	25.47	0.08	-0.050			
0.9741	62345.31	3.0850	3.0849	-0.0829	25.47	0.08	-0.050			
0.9742	62350.61	3.0840	3.0839	-0.0826	25.47	0.08	-0.050			
0.9743	62355.89	3.0830	3.0829	-0.0823	25.47	0.08	-0.050			
0.9744	62361.15	3.0820	3.0822	-0.0820	25.47	0.08	-0.050			
0.9745	62366.37	3.0810	3.0811	-0.0817	25.47	0.08	-0.050			
0.9746	62371.58	3.0800	3.0801	-0.0814	25.47	0.08	-0.050			
0.9746	62376.78	3.0790	3.0791	-0.0811	25.47	0.08	-0.050			
0.9747	62381.95	3.0780	3.0781	-0.0808	25.47	0.08	-0.050			
0.9748	62387.11	3.0770	3.0770	-0.0805	25.47	0.08	-0.050			
0.9749	62392.25	3.0760	3.0760	-0.0802	25.47	0.08	-0.050			
0.9750	62397.37	3.0750	3.0750	-0.0799	25.47	0.08	-0.050			
0.9750	62402.48	3.0740	3.0739	-0.0796	25.47	0.08	-0.050			
0.9751	62407.50	3.0730	3.0729	-0.0792	25.47	0.08	-0.050			
0.9752	62412.56	3.0720	3.0721	-0.0790	25.47	0.08	-0.050			
0.9753	62417.61	3.0710	3.0710	-0.0787	25.47	0.08	-0.050			
0.9754	62422.64	3.0700	3.0698	-0.0785	25.47	0.08	-0.050			
0.9754	62427.65	3.0690	3.0688	-0.0782	25.47	0.08	-0.050			
0.9755	62432.65	3.0680	3.0679	-0.0780	25.47	0.08	-0.050			
0.9756	62437.63	3.0670	3.0670	-0.0777	25.47	0.08	-0.050			
0.9757	62442.60	3.0660	3.0662	-0.0775	25.47	0.08	-0.050			
0.9757	62447.59	3.0650	3.0651	-0.0773	25.47	0.08	-0.050			
0.9758	62452.17	3.0640	3.0640	-0.0774	25.47	0.08	-0.050			
0.9759	62457.13	3.0630	3.0630	-0.0774	25.47	0.08	-0.050			
0.9760	62462.08	3.0620	3.0621	-0.0773	25.47	0.08	-0.050			
0.9760	62467.02	3.0610	3.0612	-0.0773	25.47	0.08	-0.050			
0.9761	62471.97	3.0600	3.0600	-0.0772	25.47	0.08	-0.050			
0.9762	62476.91	3.0590	3.0589	-0.0772	25.47	0.08	-0.050			
0.9763	62481.56	3.0580	3.0579	-0.0769	25.47	0.08	-0.050			
0.9764	62486.78	3.0570	3.0569	-0.0765	25.47	0.08	-0.050			
0.9764	62491.67	3.0560	3.0559	-0.0765	25.47	0.08	-0.050			
0.9765	62496.57	3.0550	3.0548	-0.0764	25.48	0.09	-0.050			
0.9766	62501.45	3.0540	3.0539	-0.0763	25.48	0.09	-0.050			
0.9767	62506.33	3.0530	3.0529	-0.0762	25.48	0.09	-0.050			
0.9767	62511.21	3.0520	3.0519	-0.0762	25.48	0.09	-0.050			
0.9768	62516.17	3.0510	3.0510	-0.0762	25.48	0.09	-0.050			
0.9769	62521.04	3.0500	3.0502	-0.0761	25.48	0.09	-0.050			
0.9770	62526.16	3.0490	3.0491	-0.0755	25.48	0.09	-0.050			
0.9770	62530.98	3.0480	3.0481	-0.0752	25.48	0.09	-0.050			
0.9771	62535.78	3.0470	3.0471	-0.0749	25.48	0.09	-0.050			
0.9772	62540.56	3.0460	3.0461	-0.0746	25.48	0.09	-0.050			
0.9773	62545.33	3.0450	3.0451	-0.0743	25.48	0.09	-0.050			
0.9774	62550.53	3.0440	3.0440	-0.0747	25.47	0.08	-0.050			
0.9774	62555.29	3.0430	3.0429	-0.0741	25.47	0.08	-0.050			
0.9775	62559.63	3.0420	3.0420	-0.0741	25.47	0.08	-0.050			
0.9776	62564.36	3.0410	3.0411	-0.0738	25.47	0.08	-0.050			
0.9776	62569.08	3.0400	3.0402	-0.0735	25.47	0.08	-0.050			
0.9777	62573.77	3.0390	3.0392	-0.0732	25.47	0.08	-0.050			
0.9778	62578.45	3.0380	3.0379	-0.0729	25.47	0.08	-0.050			
0.9779	62582.79	3.0370	3.0369	-0.0720	25.47	0.08	-0.050			
0.9779	62587.39	3.0360	3.0360	-0.0719	25.47	0.08	-0.050			
0.9780	62591.99	3.0350	3.0351	-0.0718	25.47	0.08	-0.050			
0.9781	62596.65	3.0340	3.0340	-0.0715	25.47	0.08	-0.050			
0.9781	62601.22	3.0330	3.0329	-0.0713	25.48	0.09	-0.050			
0.9782	62605.78	3.0320	3.0319	-0.0712	25.48	0.09	-0.050			
0.9783	62610.33	3.0310	3.0309	-0.0710	25.48	0.09	-0.050			
0.9784	62614.87	3.0300	3.0299	-0.0708	25.48	0.09	-0.050			
0.9784	62619.32	3.0290	3.0289	-0.0706	25.48	0.09	-0.050			
0.9785	62623.83	3.0280	3.0280	-0.0704	25.48	0.09	-0.050			
0.9786	62628.34	3.0270	3.0271	-0.0703	25.48	0.09	-0.050			
0.9786	62632.79	3.0260	3.0260	-0.0702	25.48	0.09	-0.050			
0.9787	62637.28	3.0250	3.0249	-0.0701	25.48	0.09	-0.050			
0.9788	62641.77	3.0240	3.0241	-0.0700	25.48	0.09	-0.050			
0.9788	62646.24	3.0230	3.0232	-0.0699	25.48	0.09	-0.050			
0.9789	62650.80	3.0220	3.0221	-0.0699	25.48	0.09	-0.050			
0.9790	62655.27	3.0210	3.0211	-0.0697	25.47	0.08	-0.050			
0.9791	62659.73	3.0200	3.0200	-0.0696	25.47	0.08	-0.050			
0.9791	62664.18	3.0190	3.0189	-0.0694	25.47	0.08	-0.050			
0.9792	62668.65	3.0180	3.0178	-0.0692	25.47	0.08	-0.050			
0.9793	62673.07	3.0170	3.0168	-0.0690	25.47	0.08	-0.050			
0.9793	62677.48	3.0160	3.0158	-0.0688	25.47	0.08	-0.050			
0.9794	62681.87	3.0150	3.0151	-0.0686	25.47	0.08	-0.050			
0.9795	62686.16	3.0140	3.0141	-0.0683	25.47	0.08	-0.050			
0.9795	62690.52	3.0130	3.0130	-0.0682	25.47	0.08	-0.050			
0.9796	62694.88	3.0120	3.0120	-0.0680	25.47	0.08	-0.050			
0.9797	62699.23	3.0110	3.0110	-0.0679	25.47	0.08	-0.050			
0.9797	62703.57	3.0100	3.0100	-0.0678	25.47	0.08	-0.050			
0.9798	62707.91	3.0090	3.0091	-0.0676	25.47	0.08	-0.050			
0.9799	62712.23	3.0080	3.0081	-0.0675	25.47	0.08	-0.050			
0.9799	62716.55	3.0070	3.0072	-0.0674	25.47	0.08	-0.050			
0.9800	62721.04	3.0060	3.0060	-0.0664	25.47	0.08	-0.050			
0.9801	62725.27	3.0050	3.0050	-0.0660	25.47	0.08	-0.050			
0.9801	62729.48	3.0040	3.0039	-0.0655	25.47	0.08	-0.050			
0.9802	62733.66	3.0030	3.0033	-0.0651	25.47	0.08	-0.050			
