Ah_balance (normalized)	Ah_balance (mAh)	Voltage - fit (V)	Voltage -  interpolate (V)	dQ/dV (1/V)	Temperature (°C)	Temperature - diff (°C)	Current (C)	R_DC 0ms (mOhm)	R_DC 50ms (mOhm)	R_DC 50 ms PEC (mOhm)
0.0001	8.85	4.1860	4.1857	-0.3954	25.17	0.00	-0.050			
0.0005	35.17	4.1850	4.1848	-0.4475	25.17	-0.00	-0.050			
0.0010	65.39	4.1840	4.1839	-0.4868	25.16	-0.01	-0.050			
0.0015	97.63	4.1830	4.1828	-0.5106	25.17	-0.00	-0.050			
0.0021	131.48	4.1820	4.1818	-0.5319	25.17	0.00	-0.050			
0.0026	166.81	4.1810	4.1808	-0.5512	25.17	0.00	-0.050			
0.0032	202.90	4.1800	4.1799	-0.5678	25.17	0.00	-0.050			
0.0038	240.24	4.1790	4.1790	-0.5836	25.17	0.00	-0.050			
0.0043	278.38	4.1780	4.1779	-0.5984	25.17	0.00	-0.050			
0.0050	318.29	4.1770	4.1770	-0.6110	25.17	0.00	-0.050			
0.0056	359.06	4.1760	4.1761	-0.6209	25.17	0.00	-0.050			
0.0062	399.32	4.1750	4.1748	-0.6318	25.17	0.00	-0.050			
0.0069	442.87	4.1740	4.1738	-0.6465	25.17	0.00	-0.050			
0.0076	484.66	4.1730	4.1730	-0.6536	25.17	0.00	-0.050			
0.0082	527.67	4.1720	4.1720	-0.6620	25.17	0.00	-0.050			
0.0089	570.53	4.1710	4.1711	-0.6683	25.17	0.00	-0.050			
0.0096	613.58	4.1700	4.1699	-0.6745	25.17	0.00	-0.050			
0.0103	657.06	4.1690	4.1692	-0.6808	25.18	0.01	-0.050			
0.0110	700.99	4.1680	4.1682	-0.6869	25.19	0.02	-0.050			
0.0116	745.03	4.1670	4.1673	-0.6933	25.19	0.02	-0.050			
0.0123	789.60	4.1660	4.1658	-0.6999	25.19	0.02	-0.050			
0.0130	834.58	4.1650	4.1650	-0.7064	25.19	0.02	-0.050			
0.0138	880.42	4.1640	4.1640	-0.7128	25.19	0.02	-0.050			
0.0145	926.18	4.1630	4.1630	-0.7182	25.20	0.03	-0.050			
0.0152	972.16	4.1620	4.1620	-0.7222	25.21	0.04	-0.050			
0.0159	1018.76	4.1610	4.1610	-0.7254	25.21	0.04	-0.050			
0.0167	1065.65	4.1600	4.1599	-0.7305	25.21	0.04	-0.050			
0.0174	1112.60	4.1590	4.1589	-0.7351	25.21	0.04	-0.050			
0.0181	1160.36	4.1580	4.1579	-0.7395	25.21	0.04	-0.050			
0.0189	1208.64	4.1570	4.1570	-0.7428	25.21	0.04	-0.050			
0.0196	1257.38	4.1560	4.1561	-0.7466	25.21	0.04	-0.050	0.564	0.792	
0.0204	1305.68	4.1550	4.1551	-0.7479	25.21	0.04	-0.050			
0.0211	1353.36	4.1540	4.1539	-0.7483	25.21	0.04	-0.050			
0.0219	1401.68	4.1530	4.1530	-0.7508	25.21	0.04	-0.050			
0.0227	1450.12	4.1520	4.1523	-0.7527	25.21	0.04	-0.050			
0.0234	1498.57	4.1510	4.1511	-0.7539	25.21	0.04	-0.050			
0.0242	1547.02	4.1500	4.1500	-0.7538	25.23	0.06	-0.050			
0.0249	1595.09	4.1490	4.1490	-0.7537	25.23	0.06	-0.050			
0.0257	1643.19	4.1480	4.1480	-0.7540	25.23	0.06	-0.050			
0.0264	1691.18	4.1470	4.1470	-0.7547	25.23	0.06	-0.050			
0.0272	1739.25	4.1460	4.1461	-0.7543	25.23	0.06	-0.050			
0.0279	1787.97	4.1450	4.1450	-0.7555	25.23	0.06	-0.050			
0.0287	1835.94	4.1440	4.1440	-0.7554	25.23	0.06	-0.050			
0.0294	1884.56	4.1430	4.1431	-0.7555	25.22	0.05	-0.050			
0.0302	1932.89	4.1420	4.1419	-0.7565	25.21	0.04	-0.050			
0.0310	1981.18	4.1410	4.1411	-0.7582	25.21	0.04	-0.050			
0.0317	2029.64	4.1400	4.1399	-0.7597	25.20	0.03	-0.050			
0.0325	2077.57	4.1390	4.1390	-0.7615	25.19	0.02	-0.050			
0.0332	2125.82	4.1380	4.1381	-0.7649	25.19	0.02	-0.050			
0.0340	2174.67	4.1370	4.1370	-0.7676	25.18	0.01	-0.050			
0.0347	2223.36	4.1360	4.1363	-0.7723	25.17	0.00	-0.050			
0.0355	2272.70	4.1350	4.1349	-0.7755	25.16	-0.01	-0.050			
0.0363	2321.91	4.1340	4.1340	-0.7796	25.15	-0.02	-0.050			
0.0371	2371.72	4.1330	4.1330	-0.7830	25.14	-0.03	-0.050			
0.0378	2422.10	4.1320	4.1321	-0.7863	25.15	-0.02	-0.050			
0.0386	2472.96	4.1310	4.1310	-0.7901	25.15	-0.02	-0.050			
0.0394	2524.14	4.1300	4.1299	-0.7927	25.14	-0.03	-0.050			
0.0402	2575.63	4.1290	4.1290	-0.7949	25.13	-0.04	-0.050			
0.0410	2627.15	4.1280	4.1280	-0.7958	25.13	-0.04	-0.050			
0.0419	2679.29	4.1270	4.1267	-0.7974	25.13	-0.04	-0.050			
0.0427	2731.02	4.1260	4.1260	-0.7986	25.11	-0.06	-0.050			
0.0435	2782.48	4.1250	4.1252	-0.8000	25.12	-0.05	-0.050			
0.0443	2834.03	4.1240	4.1241	-0.8001	25.11	-0.06	-0.050			
0.0451	2885.00	4.1230	4.1231	-0.8015	25.11	-0.06	-0.050			
0.0459	2935.45	4.1220	4.1221	-0.8044	25.11	-0.06	-0.050			
0.0467	2986.50	4.1210	4.1211	-0.8075	25.09	-0.08	-0.050			
0.0474	3036.11	4.1200	4.1200	-0.8132	25.09	-0.08	-0.050			
0.0482	3086.63	4.1190	4.1191	-0.8169	25.10	-0.07	-0.050			
0.0490	3137.56	4.1180	4.1180	-0.8248	25.10	-0.07	-0.050			
0.0498	3189.89	4.1170	4.1168	-0.8308	25.10	-0.07	-0.050			
0.0507	3243.08	4.1160	4.1159	-0.8341	25.10	-0.07	-0.050			
0.0515	3297.29	4.1150	4.1149	-0.8386	25.09	-0.08	-0.050			
0.0524	3351.72	4.1140	4.1138	-0.8447	25.08	-0.09	-0.050			
0.0532	3406.66	4.1130	4.1129	-0.8501	25.09	-0.08	-0.050			
0.0541	3463.75	4.1120	4.1120	-0.8520	25.07	-0.10	-0.050			
0.0550	3520.01	4.1110	4.1109	-0.8529	25.07	-0.10	-0.050			
0.0559	3576.47	4.1100	4.1101	-0.8513	25.05	-0.12	-0.050			
0.0568	3634.57	4.1090	4.1090	-0.8486	25.05	-0.12	-0.050			
0.0577	3691.38	4.1080	4.1083	-0.8423	25.06	-0.11	-0.050			
0.0585	3746.68	4.1070	4.1073	-0.8344	25.07	-0.10	-0.050			
0.0594	3800.88	4.1060	4.1058	-0.8241	25.07	-0.10	-0.050			
0.0602	3853.55	4.1050	4.1050	-0.8186	25.07	-0.10	-0.050	0.235	0.523	
0.0610	3905.09	4.1040	4.1041	-0.8091	25.07	-0.10	-0.050			
0.0618	3955.67	4.1030	4.1031	-0.8007	25.07	-0.10	-0.050			
0.0626	4003.88	4.1020	4.1022	-0.7937	25.09	-0.08	-0.050			
0.0633	4052.44	4.1010	4.1011	-0.7874	25.09	-0.08	-0.050			
0.0641	4099.59	4.1000	4.1002	-0.7810	25.09	-0.08	-0.050			
0.0648	4147.17	4.0990	4.0987	-0.7816	25.10	-0.07	-0.050			
0.0655	4194.91	4.0980	4.0977	-0.7795	25.11	-0.06	-0.050			
0.0663	4244.11	4.0970	4.0968	-0.7838	25.12	-0.05	-0.050			
0.0671	4293.71	4.0960	4.0958	-0.7871	25.13	-0.04	-0.050			
0.0679	4343.17	4.0950	4.0952	-0.7876	25.13	-0.04	-0.050			
0.0687	4393.78	4.0940	4.0940	-0.7908	25.14	-0.03	-0.050			
0.0695	4445.11	4.0930	4.0930	-0.7948	25.15	-0.02	-0.050			
0.0703	4497.64	4.0920	4.0920	-0.7988	25.13	-0.04	-0.050			
0.0711	4550.52	4.0910	4.0910	-0.8033	25.15	-0.02	-0.050			
0.0719	4603.90	4.0900	4.0900	-0.8051	25.16	-0.01	-0.050			
0.0728	4657.08	4.0890	4.0891	-0.8069	25.17	-0.00	-0.050			
0.0736	4710.49	4.0880	4.0880	-0.8061	25.16	-0.01	-0.050			
0.0744	4762.21	4.0870	4.0871	-0.8022	25.15	-0.02	-0.050			
0.0752	4813.25	4.0860	4.0861	-0.7977	25.15	-0.02	-0.050			
0.0760	4863.92	4.0850	4.0852	-0.7943	25.15	-0.02	-0.050			
0.0768	4914.59	4.0840	4.0838	-0.7907	25.15	-0.02	-0.050			
0.0776	4964.03	4.0830	4.0830	-0.7906	25.15	-0.02	-0.050			
0.0783	5012.30	4.0820	4.0821	-0.7946	25.15	-0.02	-0.050			
0.0791	5061.64	4.0810	4.0813	-0.7957	25.15	-0.02	-0.050			
0.0799	5111.09	4.0800	4.0801	-0.7985	25.15	-0.02	-0.050	0.106	0.380	
0.0806	5160.04	4.0790	4.0791	-0.8026	25.15	-0.02	-0.050			
0.0814	5210.79	4.0780	4.0779	-0.8089	25.14	-0.03	-0.050			
0.0822	5262.23	4.0770	4.0769	-0.8147	25.13	-0.04	-0.050			
0.0830	5314.11	4.0760	4.0759	-0.8194	25.12	-0.05	-0.050			
0.0839	5367.16	4.0750	4.0749	-0.8265	25.11	-0.06	-0.050			
0.0847	5421.31	4.0740	4.0739	-0.8319	25.10	-0.07	-0.050			
0.0855	5475.03	4.0730	4.0727	-0.8390	25.09	-0.08	-0.050			
0.0864	5529.96	4.0720	4.0720	-0.8443	25.08	-0.09	-0.050			
0.0873	5585.36	4.0710	4.0712	-0.8482	25.07	-0.10	-0.050			
0.0881	5641.58	4.0700	4.0701	-0.8513	25.06	-0.11	-0.050			
0.0890	5697.09	4.0690	4.0691	-0.8542	25.06	-0.11	-0.050			
0.0899	5752.96	4.0680	4.0681	-0.8583	25.06	-0.11	-0.050			
0.0908	5808.09	4.0670	4.0669	-0.8605	25.06	-0.11	-0.050			
0.0916	5862.92	4.0660	4.0661	-0.8616	25.05	-0.12	-0.050			
0.0925	5917.94	4.0650	4.0649	-0.8618	25.05	-0.12	-0.050			
0.0933	5973.07	4.0640	4.0640	-0.8609	25.05	-0.12	-0.050			
0.0942	6027.20	4.0630	4.0630	-0.8598	25.06	-0.11	-0.050			
0.0950	6081.30	4.0620	4.0619	-0.8562	25.07	-0.10	-0.050			
0.0959	6136.25	4.0610	4.0608	-0.8568	25.07	-0.10	-0.050			
0.0967	6191.95	4.0600	4.0598	-0.8549	25.05	-0.12	-0.050			
0.0976	6247.10	4.0590	4.0590	-0.8534	25.07	-0.10	-0.050			
0.0985	6302.20	4.0580	4.0579	-0.8526	25.06	-0.11	-0.050			
0.0993	6357.49	4.0570	4.0570	-0.8491	25.07	-0.10	-0.050			
0.1002	6412.63	4.0560	4.0559	-0.8471	25.07	-0.10	-0.050			
0.1010	6467.12	4.0550	4.0550	-0.8433	25.08	-0.09	-0.050			
0.1019	6521.18	4.0540	4.0540	-0.8435	25.07	-0.10	-0.050			
0.1027	6575.22	4.0530	4.0532	-0.8400	25.08	-0.09	-0.050			
0.1036	6629.10	4.0520	4.0520	-0.8364	25.09	-0.08	-0.050			
0.1044	6683.00	4.0510	4.0510	-0.8340	25.10	-0.07	-0.050			
0.1052	6735.24	4.0500	4.0501	-0.8316	25.11	-0.06	-0.050			
0.1061	6787.26	4.0490	4.0490	-0.8298	25.12	-0.05	-0.050			
0.1068	6838.36	4.0480	4.0479	-0.8287	25.12	-0.05	-0.050			
0.1077	6890.07	4.0470	4.0468	-0.8294	25.13	-0.04	-0.050			
0.1085	6941.86	4.0460	4.0461	-0.8314	25.13	-0.04	-0.050			
0.1093	6994.63	4.0450	4.0448	-0.8342	25.15	-0.02	-0.050			
0.1101	7047.50	4.0440	4.0439	-0.8386	25.15	-0.02	-0.050			
0.1110	7101.04	4.0430	4.0432	-0.8404	25.15	-0.02	-0.050			
0.1118	7155.79	4.0420	4.0418	-0.8432	25.17	-0.00	-0.050			
0.1127	7210.74	4.0410	4.0408	-0.8455	25.17	0.00	-0.050			
0.1135	7266.17	4.0400	4.0399	-0.8474	25.17	0.00	-0.050			
0.1144	7321.11	4.0390	4.0389	-0.8494	25.17	0.00	-0.050			
0.1152	7375.95	4.0380	4.0379	-0.8507	25.19	0.02	-0.050			
0.1161	7430.83	4.0370	4.0371	-0.8513	25.19	0.02	-0.050			
0.1169	7483.92	4.0360	4.0362	-0.8603	25.19	0.02	-0.050			
0.1178	7538.63	4.0350	4.0352	-0.8646	25.19	0.02	-0.050			
0.1186	7593.15	4.0340	4.0343	-0.8687	25.19	0.02	-0.050			
0.1195	7648.58	4.0330	4.0329	-0.8736	25.20	0.03	-0.050			
0.1204	7704.94	4.0320	4.0319	-0.8788	25.21	0.04	-0.050			
0.1213	7761.09	4.0310	4.0308	-0.8824	25.21	0.04	-0.050			
0.1221	7817.30	4.0300	4.0299	-0.8831	25.21	0.04	-0.050			
0.1230	7874.16	4.0290	4.0288	-0.8843	25.21	0.04	-0.050			
0.1239	7931.37	4.0280	4.0277	-0.8845	25.20	0.03	-0.050			
0.1248	7987.93	4.0270	4.0267	-0.8868	25.19	0.02	-0.050			
0.1257	8045.61	4.0260	4.0264	-0.8895	25.18	0.01	-0.050			
0.1266	8103.38	4.0250	4.0251	-0.8919	25.17	0.00	-0.050			
0.1275	8161.10	4.0240	4.0242	-0.8935	25.15	-0.02	-0.050			
0.1284	8220.10	4.0230	4.0232	-0.8972	25.13	-0.04	-0.050			
0.1294	8278.42	4.0220	4.0220	-0.8981	25.12	-0.05	-0.050			
0.1303	8336.59	4.0210	4.0212	-0.8984	25.11	-0.06	-0.050			
0.1312	8394.42	4.0200	4.0200	-0.8957	25.11	-0.06	-0.050			
0.1321	8452.91	4.0190	4.0188	-0.8881	25.09	-0.08	-0.050			
0.1330	8510.41	4.0180	4.0179	-0.8786	25.08	-0.09	-0.050			
0.1339	8566.49	4.0170	4.0170	-0.8676	25.07	-0.10	-0.050			
0.1347	8620.13	4.0160	4.0160	-0.8563	25.07	-0.10	-0.050			
0.1355	8674.41	4.0150	4.0149	-0.8586	25.06	-0.11	-0.050			
0.1364	8728.84	4.0140	4.0140	-0.8579	25.05	-0.12	-0.050			
0.1372	8781.88	4.0130	4.0133	-0.8615	25.05	-0.12	-0.050			
0.1381	8835.91	4.0120	4.0121	-0.8625	25.06	-0.11	-0.050			
0.1389	8889.80	4.0110	4.0112	-0.8648	25.05	-0.12	-0.050			
0.1398	8945.13	4.0100	4.0102	-0.8669	25.05	-0.12	-0.050	-0.134	0.355	
0.1406	9000.41	4.0090	4.0088	-0.8687	25.05	-0.12	-0.050			
0.1415	9054.65	4.0080	4.0077	-0.8694	25.05	-0.12	-0.050			
0.1423	9110.10	4.0070	4.0066	-0.8709	25.04	-0.13	-0.050			
0.1432	9165.90	4.0060	4.0057	-0.8705	25.04	-0.13	-0.050			
0.1441	9221.46	4.0050	4.0051	-0.8737	25.03	-0.14	-0.050			
0.1450	9277.53	4.0040	4.0039	-0.8764	25.01	-0.16	-0.050			
0.1459	9334.76	4.0030	4.0031	-0.8775	25.01	-0.16	-0.050			
0.1467	9391.77	4.0020	4.0021	-0.8804	25.02	-0.15	-0.050			
0.1476	9449.49	4.0010	4.0010	-0.8845	25.03	-0.14	-0.050			
0.1486	9507.42	4.0000	4.0001	-0.8886	25.03	-0.14	-0.050			
0.1495	9564.92	3.9990	3.9991	-0.8942	25.03	-0.14	-0.050			
0.1504	9623.36	3.9980	3.9982	-0.8984	25.06	-0.11	-0.050			
0.1512	9679.97	3.9970	3.9970	-0.8998	25.07	-0.10	-0.050			
0.1521	9735.61	3.9960	3.9959	-0.8974	25.08	-0.09	-0.050			
0.1530	9790.67	3.9950	3.9950	-0.8961	25.09	-0.08	-0.050			
0.1539	9847.57	3.9940	3.9941	-0.8989	25.10	-0.07	-0.050			
0.1548	9904.98	3.9930	3.9928	-0.8989	25.12	-0.05	-0.050			
0.1557	9963.19	3.9920	3.9919	-0.9009	25.13	-0.04	-0.050			
0.1566	10022.02	3.9910	3.9911	-0.9042	25.14	-0.03	-0.050			
0.1575	10080.72	3.9900	3.9898	-0.9060	25.15	-0.02	-0.050			
0.1584	10139.33	3.9890	3.9891	-0.9077	25.17	-0.00	-0.050			
0.1594	10199.15	3.9880	3.9880	-0.9049	25.17	0.00	-0.050			
0.1603	10258.18	3.9870	3.9871	-0.9040	25.18	0.01	-0.050			
0.1612	10317.34	3.9860	3.9860	-0.9034	25.18	0.01	-0.050			
0.1621	10375.08	3.9850	3.9852	-0.9005	25.19	0.02	-0.050			
0.1630	10433.03	3.9840	3.9841	-0.8969	25.20	0.03	-0.050			
0.1639	10491.55	3.9830	3.9830	-0.8947	25.22	0.05	-0.050			
0.1648	10547.17	3.9820	3.9820	-0.8943	25.21	0.04	-0.050			
0.1657	10602.49	3.9810	3.9810	-0.8943	25.22	0.05	-0.050			
0.1665	10658.53	3.9800	3.9800	-0.8948	25.23	0.06	-0.050			
0.1674	10713.47	3.9790	3.9791	-0.8941	25.24	0.07	-0.050			
0.1683	10770.00	3.9780	3.9780	-0.8960	25.23	0.06	-0.050			
0.1692	10826.62	3.9770	3.9769	-0.8973	25.23	0.06	-0.050			
0.1701	10883.79	3.9760	3.9759	-0.9008	25.21	0.04	-0.050			
0.1709	10940.72	3.9750	3.9751	-0.9045	25.21	0.04	-0.050			
0.1719	10998.94	3.9740	3.9737	-0.9100	25.19	0.02	-0.050			
0.1728	11058.37	3.9730	3.9728	-0.9134	25.19	0.02	-0.050			
0.1737	11117.46	3.9720	3.9720	-0.9168	25.17	0.00	-0.050			
0.1746	11177.20	3.9710	3.9712	-0.9194	25.16	-0.01	-0.050			
0.1756	11236.25	3.9700	3.9701	-0.9233	25.13	-0.04	-0.050			
0.1765	11295.26	3.9690	3.9691	-0.9290	25.11	-0.06	-0.050			
0.1774	11356.31	3.9680	3.9679	-0.9363	25.09	-0.08	-0.050			
0.1784	11416.37	3.9670	3.9669	-0.9398	25.09	-0.08	-0.050			
0.1793	11476.69	3.9660	3.9660	-0.9404	25.07	-0.10	-0.050			
0.1803	11537.40	3.9650	3.9651	-0.9405	25.07	-0.10	-0.050			
0.1812	11597.86	3.9640	3.9641	-0.9399	25.07	-0.10	-0.050			
0.1822	11658.62	3.9630	3.9630	-0.9388	25.06	-0.11	-0.050			
0.1831	11718.20	3.9620	3.9618	-0.9349	25.05	-0.12	-0.050			
0.1840	11778.18	3.9610	3.9608	-0.9342	25.05	-0.12	-0.050			
0.1850	11838.61	3.9600	3.9600	-0.9324	25.05	-0.12	-0.050			
0.1859	11898.67	3.9590	3.9592	-0.9334	25.07	-0.10	-0.050			
0.1869	11958.61	3.9580	3.9580	-0.9324	25.06	-0.11	-0.050			
0.1878	12018.68	3.9570	3.9571	-0.9314	25.06	-0.11	-0.050			
0.1887	12077.93	3.9560	3.9561	-0.9297	25.07	-0.10	-0.050			
0.1896	12137.29	3.9550	3.9551	-0.9280	25.07	-0.10	-0.050			
0.1906	12196.48	3.9540	3.9539	-0.9293	25.07	-0.10	-0.050			
0.1915	12255.06	3.9530	3.9532	-0.9323	25.08	-0.09	-0.050			
0.1924	12314.18	3.9520	3.9518	-0.9336	25.09	-0.08	-0.050			
0.1933	12372.89	3.9510	3.9511	-0.9352	25.08	-0.09	-0.050			
0.1942	12431.14	3.9500	3.9500	-0.9338	25.09	-0.08	-0.050			
0.1952	12489.68	3.9490	3.9492	-0.9356	25.11	-0.06	-0.050			
0.1961	12549.69	3.9480	3.9480	-0.9405	25.11	-0.06	-0.050			
0.1970	12609.88	3.9470	3.9470	-0.9446	25.12	-0.05	-0.050			
0.1980	12670.81	3.9460	3.9459	-0.9479	25.12	-0.05	-0.050			
0.1989	12732.39	3.9450	3.9450	-0.9530	25.14	-0.03	-0.050			
0.1999	12794.63	3.9440	3.9440	-0.9558	25.13	-0.04	-0.050			
0.2009	12856.47	3.9430	3.9431	-0.9581	25.14	-0.03	-0.050			
0.2018	12918.29	3.9420	3.9420	-0.9619	25.15	-0.02	-0.050			
0.2028	12979.09	3.9410	3.9411	-0.9670	25.15	-0.02	-0.050			
0.2038	13041.16	3.9400	3.9398	-0.9710	25.17	0.00	-0.050			
0.2047	13103.14	3.9390	3.9391	-0.9738	25.17	0.00	-0.050			
0.2057	13167.15	3.9380	3.9382	-0.9741	25.18	0.01	-0.050			
0.2067	13230.88	3.9370	3.9371	-0.9709	25.19	0.02	-0.050			
0.2077	13294.66	3.9360	3.9359	-0.9659	25.20	0.03	-0.050			
0.2087	13356.69	3.9350	3.9347	-0.9624	25.19	0.02	-0.050			
0.2097	13417.81	3.9340	3.9338	-0.9603	25.19	0.02	-0.050			
0.2106	13478.76	3.9330	3.9328	-0.9589	25.19	0.02	-0.050			
0.2116	13540.22	3.9320	3.9322	-0.9585	25.19	0.02	-0.050			
0.2125	13601.26	3.9310	3.9314	-0.9587	25.19	0.02	-0.050			
0.2135	13662.05	3.9300	3.9302	-0.9592	25.19	0.02	-0.050			
0.2144	13722.79	3.9290	3.9292	-0.9581	25.19	0.02	-0.050			
0.2154	13783.56	3.9280	3.9284	-0.9582	25.18	0.01	-0.050			
0.2163	13844.85	3.9270	3.9267	-0.9575	25.17	0.00	-0.050			
0.2173	13905.41	3.9260	3.9258	-0.9590	25.16	-0.01	-0.050			
0.2182	13966.61	3.9250	3.9247	-0.9602	25.14	-0.03	-0.050			
0.2192	14027.61	3.9240	3.9241	-0.9615	25.11	-0.06	-0.050			
0.2201	14087.91	3.9230	3.9231	-0.9615	25.11	-0.06	-0.050			
0.2211	14148.46	3.9220	3.9220	-0.9622	25.10	-0.07	-0.050			
0.2220	14209.66	3.9210	3.9210	-0.9635	25.11	-0.06	-0.050			
0.2230	14272.33	3.9200	3.9201	-0.9687	25.10	-0.07	-0.050			
0.2240	14336.14	3.9190	3.9190	-0.9736	25.10	-0.07	-0.050			
0.2250	14399.49	3.9180	3.9179	-0.9774	25.10	-0.07	-0.050			
0.2260	14463.08	3.9170	3.9168	-0.9848	25.09	-0.08	-0.050			
0.2270	14526.32	3.9160	3.9160	-0.9839	25.11	-0.06	-0.050			
0.2279	14588.55	3.9150	3.9150	-0.9852	25.11	-0.06	-0.050			
0.2289	14650.80	3.9140	3.9142	-0.9846	25.12	-0.05	-0.050			
0.2299	14713.61	3.9130	3.9132	-0.9869	25.13	-0.04	-0.050			
0.2309	14777.78	3.9120	3.9119	-0.9873	25.14	-0.03	-0.050			
0.2319	14841.92	3.9110	3.9110	-0.9848	25.15	-0.02	-0.050			
0.2329	14904.92	3.9100	3.9100	-0.9859	25.15	-0.02	-0.050			
0.2339	14968.62	3.9090	3.9087	-0.9853	25.16	-0.01	-0.050			
0.2349	15032.39	3.9080	3.9078	-0.9843	25.17	0.00	-0.050			
0.2359	15095.53	3.9070	3.9071	-0.9827	25.19	0.02	-0.050			
0.2368	15157.92	3.9060	3.9057	-0.9818	25.19	0.02	-0.050			
0.2378	15221.03	3.9050	3.9052	-0.9800	25.21	0.04	-0.050			
0.2388	15283.72	3.9040	3.9040	-0.9789	25.22	0.05	-0.050			
0.2398	15346.24	3.9030	3.9030	-0.9771	25.23	0.06	-0.050			
0.2408	15408.67	3.9020	3.9020	-0.9776	25.25	0.08	-0.050			
0.2417	15471.28	3.9010	3.9009	-0.9755	25.26	0.09	-0.050			
0.2427	15533.34	3.9000	3.9001	-0.9747	25.27	0.10	-0.050			
0.2437	15594.83	3.8990	3.8990	-0.9747	25.30	0.13	-0.050			
0.2446	15656.41	3.8980	3.8980	-0.9748	25.31	0.14	-0.050			
0.2456	15717.60	3.8970	3.8970	-0.9740	25.31	0.14	-0.050			
0.2466	15780.12	3.8960	3.8961	-0.9761	25.31	0.14	-0.050			
0.2475	15842.15	3.8950	3.8949	-0.9774	25.33	0.16	-0.050			
0.2485	15904.83	3.8940	3.8941	-0.9803	25.34	0.17	-0.050			
0.2495	15968.07	3.8930	3.8930	-0.9809	25.35	0.18	-0.050			
0.2505	16032.61	3.8920	3.8920	-0.9814	25.35	0.18	-0.050			
0.2515	16096.30	3.8910	3.8909	-0.9801	25.36	0.19	-0.050			
0.2525	16159.43	3.8900	3.8898	-0.9787	25.37	0.20	-0.050			
0.2535	16222.20	3.8890	3.8891	-0.9784	25.37	0.20	-0.050			
0.2544	16284.35	3.8880	3.8881	-0.9782	25.36	0.19	-0.050			
0.2554	16346.74	3.8870	3.8872	-0.9787	25.36	0.19	-0.050			
0.2564	16409.08	3.8860	3.8860	-0.9785	25.36	0.19	-0.050			
0.2574	16472.03	3.8850	3.8851	-0.9791	25.35	0.18	-0.050			
0.2583	16533.48	3.8840	3.8843	-0.9827	25.33	0.16	-0.050			
0.2593	16596.02	3.8830	3.8829	-0.9848	25.33	0.16	-0.050			
0.2603	16658.48	3.8820	3.8819	-0.9855	25.31	0.14	-0.050			
0.2613	16721.26	3.8810	3.8808	-0.9876	25.30	0.13	-0.050			
0.2622	16783.73	3.8800	3.8801	-0.9892	25.29	0.12	-0.050			
0.2632	16846.31	3.8790	3.8790	-0.9906	25.28	0.11	-0.050			
0.2642	16909.80	3.8780	3.8780	-0.9944	25.25	0.08	-0.050			
0.2652	16973.83	3.8770	3.8771	-0.9970	25.23	0.06	-0.050			
0.2662	17036.45	3.8760	3.8759	-1.0080	25.21	0.04	-0.050			
0.2672	17099.11	3.8750	3.8751	-1.0190	25.19	0.02	-0.050			
0.2682	17164.47	3.8740	3.8742	-1.0284	25.17	0.00	-0.050			
0.2692	17231.26	3.8730	3.8732	-1.0401	25.17	0.00	-0.050			
0.2703	17299.79	3.8720	3.8719	-1.0448	25.17	-0.00	-0.050			
0.2714	17366.80	3.8710	3.8711	-1.0498	25.16	-0.01	-0.050			
0.2724	17435.24	3.8700	3.8697	-1.0519	25.17	-0.00	-0.050			
0.2735	17503.85	3.8690	3.8689	-1.0553	25.15	-0.02	-0.050			
0.2746	17572.28	3.8680	3.8679	-1.0551	25.15	-0.02	-0.050			
0.2756	17640.73	3.8670	3.8667	-1.0552	25.16	-0.01	-0.050			
0.2767	17709.68	3.8660	3.8661	-1.0571	25.16	-0.01	-0.050			
0.2778	17778.23	3.8650	3.8654	-1.0544	25.16	-0.01	-0.050			
0.2788	17846.39	3.8640	3.8643	-1.0511	25.18	0.01	-0.050			
0.2799	17915.85	3.8630	3.8631	-1.0513	25.19	0.02	-0.050	0.349	0.448	
0.2810	17983.63	3.8620	3.8620	-1.0488	25.19	0.02	-0.050			
0.2820	18050.91	3.8610	3.8611	-1.0454	25.21	0.04	-0.050			
0.2831	18117.85	3.8600	3.8598	-1.0403	25.22	0.05	-0.050			
0.2841	18183.70	3.8590	3.8589	-1.0344	25.23	0.06	-0.050			
0.2851	18249.01	3.8580	3.8581	-1.0285	25.23	0.06	-0.050			
0.2862	18314.14	3.8570	3.8570	-1.0228	25.23	0.06	-0.050			
0.2871	18375.38	3.8560	3.8560	-1.0131	25.24	0.07	-0.050			
0.2881	18440.17	3.8550	3.8550	-1.0095	25.25	0.08	-0.050			
0.2892	18506.60	3.8540	3.8539	-1.0055	25.25	0.08	-0.050			
0.2902	18572.71	3.8530	3.8529	-0.9986	25.27	0.10	-0.050			
0.2912	18637.60	3.8520	3.8519	-0.9965	25.27	0.10	-0.050			
0.2922	18700.97	3.8510	3.8511	-0.9917	25.28	0.11	-0.050			
0.2932	18763.77	3.8500	3.8500	-0.9897	25.28	0.11	-0.050			
0.2942	18826.43	3.8490	3.8489	-0.9862	25.29	0.12	-0.050			
0.2951	18888.43	3.8480	3.8482	-0.9853	25.29	0.12	-0.050			
0.2961	18950.29	3.8470	3.8471	-0.9845	25.29	0.12	-0.050			
0.2971	19013.10	3.8460	3.8462	-0.9844	25.29	0.12	-0.050			
0.2980	19074.85	3.8450	3.8452	-0.9846	25.30	0.13	-0.050			
0.2990	19137.32	3.8440	3.8437	-0.9847	25.30	0.13	-0.050			
0.3000	19198.45	3.8430	3.8429	-0.9873	25.30	0.13	-0.050	0.526	0.479	
0.3009	19260.48	3.8420	3.8420	-0.9888	25.29	0.12	-0.050			
0.3019	19322.88	3.8410	3.8409	-0.9924	25.29	0.12	-0.050			
0.3029	19386.26	3.8400	3.8401	-0.9987	25.30	0.13	-0.050			
0.3039	19449.64	3.8390	3.8390	-1.0044	25.29	0.12	-0.050			
0.3049	19513.86	3.8380	3.8381	-1.0110	25.29	0.12	-0.050			
0.3059	19579.22	3.8370	3.8373	-1.0180	25.27	0.10	-0.050			
0.3069	19644.65	3.8360	3.8361	-1.0258	25.27	0.10	-0.050			
0.3080	19712.05	3.8350	3.8350	-1.0338	25.25	0.08	-0.050			
0.3091	19780.17	3.8340	3.8339	-1.0421	25.23	0.06	-0.050			
0.3101	19848.54	3.8330	3.8331	-1.0429	25.21	0.04	-0.050			
0.3112	19915.55	3.8320	3.8319	-1.0432	25.19	0.02	-0.050			
0.3122	19982.67	3.8310	3.8310	-1.0432	25.18	0.01	-0.050			
0.3133	20049.49	3.8300	3.8301	-1.0442	25.19	0.02	-0.050			
0.3143	20116.85	3.8290	3.8290	-1.0439	25.17	0.00	-0.050			
0.3154	20184.32	3.8280	3.8281	-1.0449	25.17	0.00	-0.050			
0.3164	20251.15	3.8270	3.8269	-1.0476	25.17	0.00	-0.050			
0.3175	20317.96	3.8260	3.8261	-1.0503	25.17	0.00	-0.050			
0.3185	20384.08	3.8250	3.8251	-1.0531	25.17	0.00	-0.050			
0.3195	20451.16	3.8240	3.8241	-1.0550	25.18	0.01	-0.050			
0.3206	20517.57	3.8230	3.8230	-1.0573	25.19	0.02	-0.050	0.350	0.420	
0.3216	20585.39	3.8220	3.8220	-1.0593	25.19	0.02	-0.050			
0.3227	20653.28	3.8210	3.8209	-1.0585	25.19	0.02	-0.050			
0.3238	20721.91	3.8200	3.8199	-1.0578	25.21	0.04	-0.050			
0.3248	20790.08	3.8190	3.8188	-1.0563	25.22	0.05	-0.050			
0.3259	20858.99	3.8180	3.8181	-1.0535	25.21	0.04	-0.050			
0.3270	20927.28	3.8170	3.8170	-1.0503	25.22	0.05	-0.050			
0.3281	20995.20	3.8160	3.8161	-1.0481	25.24	0.07	-0.050			
0.3291	21063.52	3.8150	3.8152	-1.0482	25.24	0.07	-0.050			
0.3302	21131.66	3.8140	3.8140	-1.0439	25.25	0.08	-0.050			
0.3312	21199.20	3.8130	3.8131	-1.0430	25.27	0.10	-0.050			
0.3323	21265.42	3.8120	3.8121	-1.0391	25.29	0.12	-0.050			
0.3333	21331.69	3.8110	3.8112	-1.0342	25.29	0.12	-0.050			
0.3343	21396.65	3.8100	3.8100	-1.0320	25.31	0.14	-0.050			
0.3353	21461.60	3.8090	3.8089	-1.0300	25.32	0.15	-0.050			
0.3364	21526.70	3.8080	3.8079	-1.0251	25.33	0.16	-0.050			
0.3374	21591.08	3.8070	3.8068	-1.0187	25.34	0.17	-0.050			
0.3384	21655.27	3.8060	3.8059	-1.0146	25.35	0.18	-0.050			
0.3394	21720.16	3.8050	3.8050	-1.0087	25.35	0.18	-0.050			
0.3404	21784.67	3.8040	3.8041	-1.0076	25.36	0.19	-0.050	0.476	0.646	
0.3414	21849.73	3.8030	3.8031	-1.0047	25.38	0.21	-0.050			
0.3424	21915.68	3.8020	3.8021	-1.0017	25.37	0.20	-0.050			
0.3435	21981.29	3.8010	3.8010	-0.9987	25.38	0.21	-0.050			
0.3445	22046.54	3.8000	3.8001	-0.9940	25.39	0.22	-0.050			
0.3455	22110.91	3.7990	3.7990	-0.9861	25.39	0.22	-0.050			
0.3465	22174.08	3.7980	3.7980	-0.9790	25.38	0.21	-0.050			
0.3474	22236.01	3.7970	3.7970	-0.9741	25.37	0.20	-0.050			
0.3484	22296.93	3.7960	3.7961	-0.9692	25.37	0.20	-0.050			
0.3493	22358.23	3.7950	3.7949	-0.9629	25.35	0.18	-0.050			
0.3503	22418.89	3.7940	3.7943	-0.9580	25.35	0.18	-0.050			
0.3512	22479.36	3.7930	3.7931	-0.9505	25.34	0.17	-0.050			
0.3522	22539.52	3.7920	3.7920	-0.9441	25.33	0.16	-0.050			
0.3531	22599.05	3.7910	3.7910	-0.9407	25.32	0.15	-0.050			
0.3540	22658.47	3.7900	3.7899	-0.9343	25.30	0.13	-0.050			
0.3550	22718.31	3.7890	3.7890	-0.9304	25.27	0.10	-0.050			
0.3559	22778.74	3.7880	3.7879	-0.9261	25.26	0.09	-0.050			
0.3568	22838.27	3.7870	3.7870	-0.9221	25.23	0.06	-0.050			
0.3578	22897.64	3.7860	3.7861	-0.9144	25.22	0.05	-0.050			
0.3587	22956.82	3.7850	3.7850	-0.9098	25.20	0.03	-0.050			
0.3596	23015.29	3.7840	3.7843	-0.9040	25.19	0.02	-0.050			
0.3605	23073.81	3.7830	3.7831	-0.8973	25.17	0.00	-0.050	0.383	0.595	
0.3614	23132.10	3.7820	3.7819	-0.8925	25.17	0.00	-0.050			
0.3623	23189.23	3.7810	3.7810	-0.8844	25.16	-0.01	-0.050			
0.3632	23246.26	3.7800	3.7800	-0.8748	25.17	-0.00	-0.050			
0.3641	23302.64	3.7790	3.7791	-0.8630	25.15	-0.02	-0.050			
0.3650	23357.99	3.7780	3.7780	-0.8488	25.15	-0.02	-0.050			
0.3658	23413.12	3.7770	3.7770	-0.8307	25.15	-0.02	-0.050			
0.3667	23466.19	3.7760	3.7760	-0.8177	25.15	-0.02	-0.050			
0.3675	23519.19	3.7750	3.7749	-0.7999	25.15	-0.02	-0.050			
0.3683	23571.62	3.7740	3.7741	-0.7837	25.15	-0.02	-0.050			
0.3691	23622.05	3.7730	3.7728	-0.7677	25.15	-0.02	-0.050			
0.3699	23670.63	3.7720	3.7722	-0.7508	25.15	-0.02	-0.050			
0.3706	23717.60	3.7710	3.7711	-0.7343	25.15	-0.02	-0.050			
0.3713	23762.84	3.7700	3.7702	-0.7230	25.15	-0.02	-0.050			
0.3720	23808.81	3.7690	3.7691	-0.7067	25.15	-0.02	-0.050			
0.3727	23852.97	3.7680	3.7682	-0.6943	25.15	-0.02	-0.050			
0.3734	23895.06	3.7670	3.7674	-0.6848	25.15	-0.02	-0.050			
0.3740	23936.88	3.7660	3.7658	-0.6691	25.15	-0.02	-0.050			
0.3746	23976.75	3.7650	3.7649	-0.6619	25.16	-0.01	-0.050			
0.3753	24017.22	3.7640	3.7640	-0.6536	25.17	0.00	-0.050			
0.3759	24056.95	3.7630	3.7630	-0.6485	25.17	0.00	-0.050			
0.3765	24095.74	3.7620	3.7621	-0.6410	25.17	0.00	-0.050			
0.3771	24136.00	3.7610	3.7611	-0.6393	25.17	0.00	-0.050			
0.3778	24176.33	3.7600	3.7603	-0.6385	25.18	0.01	-0.050			
0.3784	24217.43	3.7590	3.7591	-0.6381	25.19	0.02	-0.050			
0.3790	24258.77	3.7580	3.7581	-0.6374	25.19	0.02	-0.050			
0.3797	24300.42	3.7570	3.7571	-0.6404	25.20	0.03	-0.050			
0.3803	24341.34	3.7560	3.7560	-0.6400	25.21	0.04	-0.050	0.719	0.719	
0.3810	24383.30	3.7550	3.7552	-0.6419	25.22	0.05	-0.050			
0.3816	24424.19	3.7540	3.7540	-0.6398	25.23	0.06	-0.050			
0.3823	24464.98	3.7530	3.7530	-0.6381	25.24	0.07	-0.050			
0.3829	24504.59	3.7520	3.7522	-0.6389	25.24	0.07	-0.050			
0.3835	24545.12	3.7510	3.7511	-0.6393	25.25	0.08	-0.050			
0.3841	24585.04	3.7500	3.7502	-0.6412	25.25	0.08	-0.050			
0.3848	24625.74	3.7490	3.7490	-0.6450	25.26	0.09	-0.050			
0.3854	24666.98	3.7480	3.7480	-0.6487	25.27	0.10	-0.050			
0.3861	24707.87	3.7470	3.7469	-0.6512	25.27	0.10	-0.050			
0.3867	24748.94	3.7460	3.7460	-0.6577	25.29	0.12	-0.050			
0.3873	24789.75	3.7450	3.7449	-0.6615	25.29	0.12	-0.050			
0.3880	24831.58	3.7440	3.7439	-0.6683	25.29	0.12	-0.050			
0.3887	24873.74	3.7430	3.7426	-0.6753	25.30	0.13	-0.050			
0.3893	24916.64	3.7420	3.7420	-0.6824	25.31	0.14	-0.050			
0.3900	24960.41	3.7410	3.7410	-0.6924	25.31	0.14	-0.050			
0.3907	25004.84	3.7400	3.7401	-0.7021	25.32	0.15	-0.050			
0.3914	25050.20	3.7390	3.7390	-0.7119	25.32	0.15	-0.050			
0.3921	25096.31	3.7380	3.7379	-0.7222	25.32	0.15	-0.050			
0.3929	25142.50	3.7370	3.7370	-0.7331	25.33	0.16	-0.050			
0.3936	25188.85	3.7360	3.7358	-0.7445	25.32	0.15	-0.050			
0.3943	25236.02	3.7350	3.7351	-0.7591	25.32	0.15	-0.050			
0.3951	25284.93	3.7340	3.7341	-0.7718	25.32	0.15	-0.050			
0.3958	25334.34	3.7330	3.7331	-0.7857	25.31	0.14	-0.050			
0.3966	25384.05	3.7320	3.7322	-0.8000	25.32	0.15	-0.050			
0.3974	25434.70	3.7310	3.7310	-0.8142	25.31	0.14	-0.050			
0.3982	25486.83	3.7300	3.7301	-0.8327	25.29	0.12	-0.050			
0.3991	25539.34	3.7290	3.7289	-0.8510	25.28	0.11	-0.050			
0.3999	25594.22	3.7280	3.7278	-0.8692	25.25	0.08	-0.050	0.584	0.631	
0.4008	25650.18	3.7270	3.7269	-0.8882	25.23	0.06	-0.050			
0.4017	25706.47	3.7260	3.7260	-0.9067	25.22	0.05	-0.050			
0.4026	25764.82	3.7250	3.7253	-0.9259	25.21	0.04	-0.050			
0.4035	25824.66	3.7240	3.7239	-0.9472	25.21	0.04	-0.050			
0.4045	25886.00	3.7230	3.7231	-0.9683	25.19	0.02	-0.050			
0.4055	25949.33	3.7220	3.7219	-0.9884	25.17	0.00	-0.050			
0.4065	26012.89	3.7210	3.7210	-1.0120	25.17	0.00	-0.050			
0.4075	26077.53	3.7200	3.7200	-1.0357	25.17	0.00	-0.050			
0.4085	26144.07	3.7190	3.7190	-1.0605	25.17	0.00	-0.050			
0.4096	26212.76	3.7180	3.7180	-1.0826	25.17	0.00	-0.050			
0.4107	26281.72	3.7170	3.7170	-1.1068	25.18	0.01	-0.050			
0.4118	26353.18	3.7160	3.7160	-1.1298	25.18	0.01	-0.050			
0.4129	26426.05	3.7150	3.7149	-1.1525	25.19	0.02	-0.050			
0.4141	26501.03	3.7140	3.7142	-1.1763	25.19	0.02	-0.050			
0.4153	26578.48	3.7130	3.7131	-1.1990	25.19	0.02	-0.050			
0.4165	26656.48	3.7120	3.7120	-1.2198	25.19	0.02	-0.050			
0.4178	26736.07	3.7110	3.7111	-1.2395	25.19	0.02	-0.050			
0.4190	26816.79	3.7100	3.7100	-1.2593	25.20	0.03	-0.050			
0.4203	26899.13	3.7090	3.7091	-1.2786	25.21	0.04	-0.050			
0.4216	26979.83	3.7080	3.7082	-1.3056	25.23	0.06	-0.050			
0.4229	27064.44	3.7070	3.7071	-1.3283	25.24	0.07	-0.050			
0.4242	27150.50	3.7060	3.7061	-1.3482	25.25	0.08	-0.050			
0.4256	27237.95	3.7050	3.7050	-1.3688	25.25	0.08	-0.050			
0.4270	27326.60	3.7040	3.7040	-1.3877	25.27	0.10	-0.050			
0.4284	27416.99	3.7030	3.7032	-1.4034	25.28	0.11	-0.050			
0.4298	27508.88	3.7020	3.7019	-1.4157	25.29	0.12	-0.050			
0.4312	27599.61	3.7010	3.7009	-1.4286	25.29	0.12	-0.050			
0.4327	27691.80	3.7000	3.6999	-1.4436	25.30	0.13	-0.050			
0.4341	27784.88	3.6990	3.6987	-1.4607	25.29	0.12	-0.050			
0.4356	27878.69	3.6980	3.6983	-1.4768	25.30	0.13	-0.050			
0.4371	27972.60	3.6970	3.6971	-1.4963	25.30	0.13	-0.050			
0.4386	28069.77	3.6960	3.6961	-1.5134	25.29	0.12	-0.050			
0.4401	28168.38	3.6950	3.6950	-1.5263	25.27	0.10	-0.050	0.402	0.538	
0.4417	28267.37	3.6940	3.6940	-1.5395	25.25	0.08	-0.050			
0.4432	28365.51	3.6930	3.6929	-1.5570	25.24	0.07	-0.050			
0.4447	28463.97	3.6920	3.6919	-1.5775	25.20	0.03	-0.050			
0.4463	28564.25	3.6910	3.6909	-1.5954	25.18	0.01	-0.050			
0.4479	28666.67	3.6900	3.6899	-1.6088	25.14	-0.03	-0.050			
0.4495	28770.41	3.6890	3.6890	-1.6202	25.12	-0.05	-0.050			
0.4512	28874.52	3.6880	3.6881	-1.6331	25.10	-0.07	-0.050			
0.4528	28980.37	3.6870	3.6871	-1.6526	25.08	-0.09	-0.050			
0.4545	29087.34	3.6860	3.6861	-1.6699	25.07	-0.10	-0.050			
0.4562	29194.62	3.6850	3.6848	-1.6879	25.07	-0.10	-0.050			
0.4579	29303.55	3.6840	3.6839	-1.7096	25.07	-0.10	-0.050			
0.4596	29413.66	3.6830	3.6831	-1.7287	25.07	-0.10	-0.050	0.357	0.449	
0.4613	29524.40	3.6820	3.6823	-1.7440	25.09	-0.08	-0.050			
0.4631	29635.98	3.6810	3.6811	-1.7594	25.12	-0.05	-0.050			
0.4648	29747.89	3.6800	3.6798	-1.7773	25.14	-0.03	-0.050			
0.4666	29860.52	3.6790	3.6790	-1.7979	25.19	0.02	-0.050			
0.4684	29975.43	3.6780	3.6780	-1.8194	25.21	0.04	-0.050			
0.4702	30091.71	3.6770	3.6770	-1.8438	25.23	0.06	-0.050			
0.4721	30211.44	3.6760	3.6761	-1.8701	25.26	0.09	-0.050			
0.4739	30331.38	3.6750	3.6752	-1.8918	25.28	0.11	-0.050			
0.4758	30451.66	3.6740	3.6740	-1.9140	25.30	0.13	-0.050			
0.4777	30572.15	3.6730	3.6730	-1.9350	25.31	0.14	-0.050			
0.4796	30696.58	3.6720	3.6720	-1.9662	25.33	0.16	-0.050	0.414	0.663	
0.4816	30824.31	3.6710	3.6710	-1.9988	25.35	0.18	-0.050			
0.4837	30954.49	3.6700	3.6700	-2.0293	25.35	0.18	-0.050			
0.4857	31083.03	3.6690	3.6690	-2.0635	25.35	0.18	-0.050			
0.4877	31213.60	3.6680	3.6681	-2.0983	25.34	0.17	-0.050			
0.4898	31347.49	3.6670	3.6670	-2.1324	25.30	0.13	-0.050			
0.4919	31484.15	3.6660	3.6660	-2.1660	25.27	0.10	-0.050			
0.4941	31625.15	3.6650	3.6649	-2.1962	25.23	0.06	-0.050			
0.4964	31767.63	3.6640	3.6640	-2.2305	25.20	0.03	-0.050			
0.4986	31911.22	3.6630	3.6630	-2.2682	25.19	0.02	-0.050			
0.5009	32055.35	3.6620	3.6619	-2.3115	25.17	0.00	-0.050	0.522	0.537	
0.5032	32202.79	3.6610	3.6608	-2.3528	25.14	-0.03	-0.050			
0.5055	32355.00	3.6600	3.6598	-2.3906	25.13	-0.04	-0.050			
0.5080	32512.82	3.6590	3.6590	-2.4188	25.11	-0.06	-0.050			
0.5106	32675.30	3.6580	3.6580	-2.4353	25.11	-0.06	-0.050			
0.5131	32836.94	3.6570	3.6568	-2.4511	25.09	-0.08	-0.050			
0.5156	32998.54	3.6560	3.6559	-2.4735	25.10	-0.07	-0.050			
0.5181	33157.68	3.6550	3.6547	-2.4867	25.13	-0.04	-0.050			
0.5206	33318.36	3.6540	3.6539	-2.5077	25.17	-0.00	-0.050			
0.5231	33479.39	3.6530	3.6530	-2.5326	25.20	0.03	-0.050			
0.5257	33642.09	3.6520	3.6523	-2.5530	25.24	0.07	-0.050			
0.5282	33802.62	3.6510	3.6512	-2.5748	25.28	0.11	-0.050			
0.5307	33964.97	3.6500	3.6503	-2.5944	25.31	0.14	-0.050			
0.5333	34129.14	3.6490	3.6489	-2.6229	25.31	0.14	-0.050			
0.5359	34295.84	3.6480	3.6477	-2.6555	25.29	0.12	-0.050			
0.5385	34463.73	3.6470	3.6469	-2.6966	25.27	0.10	-0.050			
0.5412	34634.73	3.6460	3.6458	-2.7309	25.21	0.04	-0.050	0.499	0.606	
0.5438	34806.26	3.6450	3.6450	-2.7624	25.19	0.02	-0.050			
0.5465	34978.93	3.6440	3.6442	-2.8039	25.19	0.02	-0.050			
0.5493	35157.08	3.6430	3.6429	-2.8567	25.19	0.02	-0.050			
0.5522	35342.19	3.6420	3.6421	-2.9121	25.19	0.02	-0.050			
0.5553	35538.59	3.6410	3.6411	-2.9573	25.19	0.02	-0.050			
0.5584	35739.33	3.6400	3.6400	-3.0036	25.21	0.04	-0.050			
0.5614	35932.69	3.6390	3.6390	-3.0211	25.19	0.02	-0.050			
0.5645	36126.77	3.6380	3.6380	-3.0507	25.20	0.03	-0.050			
0.5675	36322.71	3.6370	3.6368	-3.0806	25.21	0.04	-0.050			
0.5706	36517.49	3.6360	3.6360	-3.1312	25.20	0.03	-0.050			
0.5737	36716.59	3.6350	3.6352	-3.1803	25.19	0.02	-0.050			
0.5768	36915.05	3.6340	3.6342	-3.2391	25.19	0.02	-0.050			
0.5800	37120.74	3.6330	3.6329	-3.3067	25.18	0.01	-0.050			
0.5833	37332.85	3.6320	3.6319	-3.3575	25.15	-0.02	-0.050			
0.5867	37551.79	3.6310	3.6309	-3.3993	25.09	-0.08	-0.050			
0.5903	37778.97	3.6300	3.6299	-3.3958	25.04	-0.13	-0.050			
0.5938	38003.00	3.6290	3.6290	-3.3912	25.05	-0.12	-0.050			
0.5973	38227.80	3.6280	3.6280	-3.3915	25.05	-0.12	-0.050			
0.6010	38461.73	3.6270	3.6271	-3.3918	25.05	-0.12	-0.050	0.307	0.461	
0.6045	38685.33	3.6260	3.6261	-3.3748	25.05	-0.12	-0.050			
0.6078	38897.30	3.6250	3.6252	-3.3387	25.07	-0.10	-0.050			
0.6110	39102.43	3.6240	3.6242	-3.2954	25.09	-0.08	-0.050			
0.6141	39304.30	3.6230	3.6229	-3.2613	25.11	-0.06	-0.050			
0.6171	39496.86	3.6220	3.6222	-3.2559	25.11	-0.06	-0.050			
0.6202	39694.58	3.6210	3.6212	-3.2547	25.13	-0.04	-0.050			
0.6235	39901.95	3.6200	3.6200	-3.2598	25.13	-0.04	-0.050			
0.6267	40110.78	3.6190	3.6186	-3.2726	25.11	-0.06	-0.050			
0.6301	40324.51	3.6180	3.6180	-3.2660	25.05	-0.12	-0.050			
0.6335	40540.95	3.6170	3.6170	-3.2571	24.99	-0.18	-0.050			
0.6369	40759.21	3.6160	3.6160	-3.2526	24.93	-0.24	-0.050			
0.6403	40981.30	3.6150	3.6152	-3.2175	24.91	-0.26	-0.050	0.204	0.615	
0.6437	41194.37	3.6140	3.6141	-3.1770	24.94	-0.23	-0.050			
0.6469	41402.54	3.6130	3.6130	-3.1277	24.97	-0.20	-0.050			
0.6501	41604.07	3.6120	3.6120	-3.0666	25.03	-0.14	-0.050			
0.6530	41791.85	3.6110	3.6109	-2.9578	25.07	-0.10	-0.050			
0.6558	41971.92	3.6100	3.6101	-2.8540	25.11	-0.06	-0.050			
0.6586	42148.53	3.6090	3.6091	-2.7669	25.13	-0.04	-0.050			
0.6612	42316.66	3.6080	3.6081	-2.6802	25.15	-0.02	-0.050			
0.6638	42484.34	3.6070	3.6070	-2.6009	25.16	-0.01	-0.050			
0.6664	42649.48	3.6060	3.6059	-2.5347	25.16	-0.01	-0.050			
0.6689	42809.67	3.6050	3.6049	-2.4712	25.15	-0.02	-0.050			
0.6713	42965.89	3.6040	3.6041	-2.4110	25.14	-0.03	-0.050			
0.6737	43116.75	3.6030	3.6030	-2.3576	25.12	-0.05	-0.050			
0.6760	43261.50	3.6020	3.6019	-2.3068	25.07	-0.10	-0.050			
0.6782	43402.89	3.6010	3.6009	-2.2564	25.04	-0.13	-0.050			
0.6803	43540.99	3.6000	3.6001	-2.2159	25.01	-0.16	-0.050	0.449	0.532	
0.6824	43675.71	3.5990	3.5989	-2.1869	25.01	-0.16	-0.050			
0.6846	43811.70	3.5980	3.5982	-2.1633	24.99	-0.18	-0.050			
0.6867	43946.46	3.5970	3.5974	-2.1439	25.00	-0.17	-0.050			
0.6887	44077.50	3.5960	3.5957	-2.1254	25.00	-0.17	-0.050			
0.6908	44208.92	3.5950	3.5948	-2.1049	25.02	-0.15	-0.050			
0.6928	44340.76	3.5940	3.5938	-2.0859	25.04	-0.13	-0.050			
0.6949	44473.37	3.5930	3.5930	-2.0728	25.07	-0.10	-0.050			
0.6970	44605.08	3.5920	3.5919	-2.0652	25.09	-0.08	-0.050			
0.6990	44736.33	3.5910	3.5911	-2.0566	25.11	-0.06	-0.050			
0.7011	44867.78	3.5900	3.5901	-2.0490	25.13	-0.04	-0.050			
0.7031	45000.02	3.5890	3.5891	-2.0413	25.15	-0.02	-0.050			
0.7052	45132.17	3.5880	3.5882	-2.0334	25.17	0.00	-0.050			
0.7073	45267.92	3.5870	3.5872	-2.0343	25.20	0.03	-0.050			
0.7094	45400.93	3.5860	3.5863	-2.0283	25.21	0.04	-0.050			
0.7114	45530.61	3.5850	3.5851	-2.0090	25.25	0.08	-0.050			
0.7134	45658.10	3.5840	3.5840	-1.9880	25.26	0.09	-0.050			
0.7154	45785.46	3.5830	3.5829	-1.9658	25.24	0.07	-0.050			
0.7174	45911.56	3.5820	3.5821	-1.9393	25.23	0.06	-0.050			
0.7193	46035.93	3.5810	3.5809	-1.9098	25.21	0.04	-0.050			
0.7212	46157.53	3.5800	3.5800	-1.8806	25.18	0.01	-0.050	0.558	0.780	
0.7231	46277.57	3.5790	3.5791	-1.8573	25.17	0.00	-0.050			
0.7249	46395.50	3.5780	3.5778	-1.8342	25.14	-0.03	-0.050			
0.7268	46512.22	3.5770	3.5769	-1.8127	25.13	-0.04	-0.050			
0.7286	46629.27	3.5760	3.5759	-1.7890	25.11	-0.06	-0.050			
0.7304	46743.32	3.5750	3.5750	-1.7678	25.13	-0.04	-0.050			
0.7320	46850.54	3.5740	3.5741	-1.7603	25.13	-0.04	-0.050			
0.7337	46958.51	3.5730	3.5729	-1.7452	25.15	-0.02	-0.050			
0.7354	47065.37	3.5720	3.5719	-1.7356	25.18	0.01	-0.050			
0.7371	47172.34	3.5710	3.5710	-1.7314	25.20	0.03	-0.050			
0.7387	47279.58	3.5700	3.5698	-1.7287	25.21	0.04	-0.050			
0.7404	47385.40	3.5690	3.5689	-1.7268	25.24	0.07	-0.050	0.511	0.700	
0.7421	47494.28	3.5680	3.5681	-1.7353	25.26	0.09	-0.050			
0.7438	47603.60	3.5670	3.5671	-1.7386	25.28	0.11	-0.050			
0.7455	47714.75	3.5660	3.5652	-1.7418	25.29	0.12	-0.050			
0.7473	47828.78	3.5650	3.5647	-1.7494	25.30	0.13	-0.050			
0.7491	47942.91	3.5640	3.5643	-1.7586	25.32	0.15	-0.050			
0.7509	48059.82	3.5630	3.5630	-1.7585	25.33	0.16	-0.050			
0.7528	48177.33	3.5620	3.5621	-1.7561	25.34	0.17	-0.050			
0.7546	48292.53	3.5610	3.5612	-1.7527	25.34	0.17	-0.050			
0.7563	48406.07	3.5600	3.5601	-1.7452	25.33	0.16	-0.050			
0.7581	48517.77	3.5590	3.5591	-1.7403	25.31	0.14	-0.050			
0.7599	48631.73	3.5580	3.5581	-1.7334	25.29	0.12	-0.050			
0.7616	48744.88	3.5570	3.5570	-1.7186	25.29	0.12	-0.050			
0.7634	48857.18	3.5560	3.5561	-1.6984	25.27	0.10	-0.050			
0.7651	48963.31	3.5550	3.5551	-1.6655	25.25	0.08	-0.050			
0.7667	49070.04	3.5540	3.5541	-1.6375	25.21	0.04	-0.050			
0.7684	49177.01	3.5530	3.5529	-1.6117	25.19	0.02	-0.050			
0.7700	49280.77	3.5520	3.5519	-1.5861	25.17	0.00	-0.050			
0.7716	49380.92	3.5510	3.5509	-1.5575	25.15	-0.02	-0.050			
0.7731	49479.83	3.5500	3.5502	-1.5301	25.15	-0.02	-0.050			
0.7746	49576.79	3.5490	3.5492	-1.5000	25.15	-0.02	-0.050			
0.7761	49672.77	3.5480	3.5481	-1.4714	25.17	0.00	-0.050			
0.7776	49767.65	3.5470	3.5470	-1.4429	25.19	0.02	-0.050			
0.7791	49860.00	3.5460	3.5459	-1.4122	25.22	0.05	-0.050			
0.7805	49950.02	3.5450	3.5448	-1.3793	25.24	0.07	-0.050	0.526	0.643	
0.7818	50038.02	3.5440	3.5438	-1.3490	25.27	0.10	-0.050			
0.7832	50123.91	3.5430	3.5428	-1.3196	25.29	0.12	-0.050			
0.7844	50203.96	3.5420	3.5420	-1.2850	25.31	0.14	-0.050			
0.7857	50282.86	3.5410	3.5412	-1.2506	25.34	0.17	-0.050			
0.7869	50359.24	3.5400	3.5400	-1.2158	25.35	0.18	-0.050			
0.7881	50436.13	3.5390	3.5391	-1.1905	25.38	0.21	-0.050			
0.7893	50512.51	3.5380	3.5379	-1.1702	25.41	0.24	-0.050			
0.7904	50587.52	3.5370	3.5370	-1.1467	25.43	0.26	-0.050			
0.7916	50659.69	3.5360	3.5360	-1.1252	25.45	0.28	-0.050			
0.7926	50729.54	3.5350	3.5349	-1.1049	25.45	0.28	-0.050			
0.7937	50798.96	3.5340	3.5339	-1.0832	25.45	0.28	-0.050			
0.7948	50865.67	3.5330	3.5330	-1.0623	25.46	0.29	-0.050			
0.7958	50929.67	3.5320	3.5321	-1.0397	25.47	0.30	-0.050			
0.7968	50993.53	3.5310	3.5310	-1.0272	25.47	0.30	-0.050			
0.7978	51057.13	3.5300	3.5300	-1.0174	25.47	0.30	-0.050			
0.7988	51121.09	3.5290	3.5289	-1.0079	25.46	0.29	-0.050			
0.7998	51184.46	3.5280	3.5280	-1.0022	25.45	0.28	-0.050			
0.8007	51245.85	3.5270	3.5270	-0.9979	25.45	0.28	-0.050	0.668	0.817	
0.8017	51308.29	3.5260	3.5258	-0.9928	25.45	0.28	-0.050			
0.8027	51370.07	3.5250	3.5252	-0.9943	25.43	0.26	-0.050			
0.8036	51431.13	3.5240	3.5238	-0.9950	25.42	0.25	-0.050			
0.8046	51493.51	3.5230	3.5231	-0.9969	25.41	0.24	-0.050			
0.8056	51556.29	3.5220	3.5219	-1.0009	25.40	0.23	-0.050			
0.8066	51620.56	3.5210	3.5211	-1.0064	25.37	0.20	-0.050			
0.8076	51686.01	3.5200	3.5200	-1.0106	25.35	0.18	-0.050			
0.8086	51751.71	3.5190	3.5188	-1.0120	25.32	0.15	-0.050			
0.8097	51818.32	3.5180	3.5178	-1.0093	25.30	0.13	-0.050			
0.8107	51884.53	3.5170	3.5170	-1.0084	25.27	0.10	-0.050			
0.8117	51950.46	3.5160	3.5157	-1.0052	25.25	0.08	-0.050			
0.8128	52016.36	3.5150	3.5151	-1.0039	25.22	0.05	-0.050			
0.8138	52082.58	3.5140	3.5139	-0.9972	25.19	0.02	-0.050			
0.8148	52149.01	3.5130	3.5130	-0.9899	25.17	0.00	-0.050			
0.8158	52213.28	3.5120	3.5122	-0.9778	25.17	0.00	-0.050			
0.8168	52276.86	3.5110	3.5110	-0.9647	25.17	0.00	-0.050			
0.8178	52340.21	3.5100	3.5101	-0.9521	25.17	0.00	-0.050			
0.8188	52401.37	3.5090	3.5090	-0.9352	25.17	0.00	-0.050			
0.8197	52461.44	3.5080	3.5079	-0.9179	25.17	0.00	-0.050			
0.8206	52519.11	3.5070	3.5069	-0.8982	25.17	0.00	-0.050	0.356	0.677	
0.8215	52575.40	3.5060	3.5059	-0.8816	25.17	0.00	-0.050			
0.8223	52629.91	3.5050	3.5050	-0.8641	25.17	0.00	-0.050			
0.8232	52683.22	3.5040	3.5043	-0.8489	25.19	0.02	-0.050			
0.8240	52734.76	3.5030	3.5031	-0.8407	25.19	0.02	-0.050			
0.8248	52786.27	3.5020	3.5019	-0.8312	25.19	0.02	-0.050			
0.8256	52836.59	3.5010	3.5010	-0.8295	25.19	0.02	-0.050			
0.8264	52887.03	3.5000	3.4999	-0.8254	25.20	0.03	-0.050			
0.8271	52936.93	3.4990	3.4992	-0.8297	25.21	0.04	-0.050			
0.8279	52985.08	3.4980	3.4981	-0.8357	25.21	0.04	-0.050			
0.8287	53033.97	3.4970	3.4970	-0.8535	25.22	0.05	-0.050			
0.8294	53081.52	3.4960	3.4961	-0.8711	25.23	0.06	-0.050			
0.8302	53131.24	3.4950	3.4950	-0.9052	25.23	0.06	-0.050			
0.8310	53186.31	3.4940	3.4942	-0.9298	25.23	0.06	-0.050			
0.8319	53242.72	3.4930	3.4931	-0.9717	25.24	0.07	-0.050			
0.8328	53297.97	3.4920	3.4922	-1.0288	25.25	0.08	-0.050			
0.8337	53355.73	3.4910	3.4912	-1.0976	25.25	0.08	-0.050			
0.8346	53414.25	3.4900	3.4903	-1.1694	25.26	0.09	-0.050			
0.8356	53480.60	3.4890	3.4892	-1.2640	25.25	0.08	-0.050			
0.8368	53557.25	3.4880	3.4881	-1.3632	25.27	0.10	-0.050			
0.8382	53645.12	3.4870	3.4872	-1.4640	25.27	0.10	-0.050			
0.8396	53731.51	3.4860	3.4863	-1.5750	25.27	0.10	-0.050			
0.8412	53834.57	3.4850	3.4852	-1.6972	25.27	0.10	-0.050			
0.8430	53949.50	3.4840	3.4836	-1.8171	25.26	0.09	-0.050			
0.8449	54074.61	3.4830	3.4826	-1.9284	25.26	0.09	-0.050			
0.8470	54209.98	3.4820	3.4819	-2.0363	25.24	0.07	-0.050			
0.8493	54353.83	3.4810	3.4809	-2.1382	25.25	0.08	-0.050			
0.8516	54501.98	3.4800	3.4800	-2.2267	25.25	0.08	-0.050			
0.8540	54656.83	3.4790	3.4790	-2.3115	25.23	0.06	-0.050			
0.8565	54816.06	3.4780	3.4780	-2.3813	25.21	0.04	-0.050			
0.8591	54981.47	3.4770	3.4767	-2.4309	25.17	0.00	-0.050			
0.8617	55149.98	3.4760	3.4760	-2.4683	25.15	-0.02	-0.050			
0.8644	55324.49	3.4750	3.4751	-2.5019	25.18	0.01	-0.050			
0.8670	55490.20	3.4740	3.4742	-2.4996	25.21	0.04	-0.050			
0.8696	55656.54	3.4730	3.4730	-2.4932	25.25	0.08	-0.050			
0.8721	55817.42	3.4720	3.4720	-2.4829	25.29	0.12	-0.050			
0.8746	55975.79	3.4710	3.4711	-2.4617	25.32	0.15	-0.050			
0.8771	56134.14	3.4700	3.4700	-2.4348	25.34	0.17	-0.050			
0.8796	56291.95	3.4690	3.4691	-2.4051	25.36	0.19	-0.050	0.520	0.762	
0.8820	56445.56	3.4680	3.4680	-2.3735	25.37	0.20	-0.050			
0.8843	56596.56	3.4670	3.4668	-2.3330	25.39	0.22	-0.050			
0.8866	56744.56	3.4660	3.4657	-2.2882	25.39	0.22	-0.050			
0.8890	56893.93	3.4650	3.4649	-2.2434	25.38	0.21	-0.050			
0.8913	57041.31	3.4640	3.4639	-2.1889	25.35	0.18	-0.050			
0.8935	57185.28	3.4630	3.4629	-2.1273	25.33	0.16	-0.050			
0.8957	57324.46	3.4620	3.4622	-2.0567	25.29	0.12	-0.050			
0.8978	57458.09	3.4610	3.4611	-1.9808	25.25	0.08	-0.050			
0.8998	57586.12	3.4600	3.4599	-1.9055	25.20	0.03	-0.050	0.512	0.655	
0.9017	57710.48	3.4590	3.4590	-1.8258	25.16	-0.01	-0.050			
0.9036	57832.03	3.4580	3.4582	-1.7509	25.12	-0.05	-0.050			
0.9054	57945.49	3.4570	3.4571	-1.6639	25.10	-0.07	-0.050			
0.9070	58049.50	3.4560	3.4561	-1.5694	25.09	-0.08	-0.050			
0.9085	58144.15	3.4550	3.4550	-1.4819	25.09	-0.08	-0.050			
0.9099	58233.10	3.4540	3.4538	-1.3918	25.09	-0.08	-0.050			
0.9112	58314.54	3.4530	3.4529	-1.3047	25.11	-0.06	-0.050			
0.9123	58389.39	3.4520	3.4518	-1.2206	25.13	-0.04	-0.050			
0.9135	58463.03	3.4510	3.4508	-1.1497	25.14	-0.03	-0.050			
0.9145	58529.95	3.4500	3.4499	-1.0788	25.16	-0.01	-0.050			
0.9155	58591.44	3.4490	3.4489	-1.0111	25.17	0.00	-0.050			
0.9164	58647.56	3.4480	3.4481	-0.9446	25.18	0.01	-0.050			
0.9173	58705.36	3.4470	3.4470	-0.8899	25.18	0.01	-0.050			
0.9181	58759.53	3.4460	3.4459	-0.8398	25.19	0.02	-0.050			
0.9189	58810.69	3.4450	3.4451	-0.7938	25.19	0.02	-0.050			
0.9197	58859.65	3.4440	3.4441	-0.7446	25.19	0.02	-0.050			
0.9204	58903.59	3.4430	3.4430	-0.7026	25.20	0.03	-0.050			
0.9210	58944.17	3.4420	3.4418	-0.6638	25.21	0.04	-0.050	0.532	0.709	
0.9216	58983.48	3.4410	3.4410	-0.6198	25.21	0.04	-0.050			
0.9222	59019.16	3.4400	3.4400	-0.5889	25.22	0.05	-0.050			
0.9227	59053.10	3.4390	3.4391	-0.5506	25.22	0.05	-0.050			
0.9232	59083.03	3.4380	3.4381	-0.5236	25.23	0.06	-0.050			
0.9236	59112.63	3.4370	3.4371	-0.5011	25.23	0.06	-0.050			
0.9241	59142.77	3.4360	3.4358	-0.4763	25.23	0.06	-0.050			
0.9245	59168.24	3.4350	3.4349	-0.4547	25.23	0.06	-0.050			
0.9249	59195.52	3.4340	3.4336	-0.4355	25.23	0.06	-0.050			
0.9253	59220.62	3.4330	3.4329	-0.4207	25.24	0.07	-0.050			
0.9257	59245.80	3.4320	3.4320	-0.4053	25.25	0.08	-0.050			
0.9261	59270.12	3.4310	3.4307	-0.3933	25.24	0.07	-0.050			
0.9265	59293.80	3.4300	3.4301	-0.3806	25.24	0.07	-0.050			
0.9268	59317.05	3.4290	3.4291	-0.3719	25.23	0.06	-0.050			
0.9272	59340.19	3.4280	3.4281	-0.3629	25.24	0.07	-0.050			
0.9275	59362.87	3.4270	3.4272	-0.3565	25.25	0.08	-0.050			
0.9279	59385.30	3.4260	3.4260	-0.3491	25.25	0.08	-0.050			
0.9282	59407.73	3.4250	3.4250	-0.3443	25.25	0.08	-0.050			
0.9286	59429.53	3.4240	3.4239	-0.3370	25.25	0.08	-0.050			
0.9289	59450.03	3.4230	3.4231	-0.3312	25.25	0.08	-0.050			
0.9292	59470.33	3.4220	3.4219	-0.3231	25.25	0.08	-0.050			
0.9295	59490.84	3.4210	3.4211	-0.3176	25.26	0.09	-0.050			
0.9298	59510.12	3.4200	3.4199	-0.3125	25.27	0.10	-0.050			
0.9302	59529.97	3.4190	3.4189	-0.3079	25.27	0.10	-0.050			
0.9304	59548.60	3.4180	3.4180	-0.3030	25.27	0.10	-0.050			
0.9307	59567.54	3.4170	3.4171	-0.2987	25.27	0.10	-0.050			
0.9310	59586.44	3.4160	3.4161	-0.2958	25.27	0.10	-0.050			
0.9313	59605.22	3.4150	3.4150	-0.2925	25.26	0.09	-0.050			
0.9316	59623.84	3.4140	3.4138	-0.2895	25.26	0.09	-0.050			
0.9319	59641.79	3.4130	3.4132	-0.2869	25.26	0.09	-0.050			
0.9322	59660.07	3.4120	3.4119	-0.2843	25.27	0.10	-0.050			
0.9325	59678.22	3.4110	3.4110	-0.2812	25.27	0.10	-0.050			
0.9328	59696.14	3.4100	3.4101	-0.2786	25.27	0.10	-0.050			
0.9330	59713.80	3.4090	3.4089	-0.2766	25.27	0.10	-0.050			
0.9333	59731.42	3.4080	3.4081	-0.2741	25.27	0.10	-0.050			
0.9336	59748.55	3.4070	3.4070	-0.2710	25.27	0.10	-0.050			
0.9338	59765.80	3.4060	3.4059	-0.2689	25.27	0.10	-0.050			
0.9341	59782.94	3.4050	3.4049	-0.2668	25.27	0.10	-0.050			
0.9344	59799.98	3.4040	3.4041	-0.2646	25.27	0.10	-0.050			
0.9346	59816.98	3.4030	3.4031	-0.2629	25.27	0.10	-0.050			
0.9349	59833.73	3.4020	3.4021	-0.2606	25.27	0.10	-0.050			
0.9352	59850.25	3.4010	3.4011	-0.2586	25.27	0.10	-0.050			
0.9354	59866.57	3.4000	3.3998	-0.2562	25.27	0.10	-0.050			
0.9357	59882.90	3.3990	3.3990	-0.2541	25.27	0.10	-0.050			
0.9359	59898.96	3.3980	3.3979	-0.2527	25.27	0.10	-0.050			
0.9362	59915.07	3.3970	3.3970	-0.2509	25.27	0.10	-0.050			
0.9364	59930.77	3.3960	3.3961	-0.2494	25.27	0.10	-0.050			
0.9367	59946.68	3.3950	3.3949	-0.2478	25.27	0.10	-0.050			
0.9369	59962.49	3.3940	3.3941	-0.2463	25.28	0.11	-0.050			
0.9372	59977.98	3.3930	3.3930	-0.2447	25.28	0.11	-0.050			
0.9374	59993.60	3.3920	3.3919	-0.2434	25.29	0.12	-0.050			
0.9376	60008.88	3.3910	3.3911	-0.2417	25.29	0.12	-0.050			
0.9379	60024.15	3.3900	3.3898	-0.2412	25.29	0.12	-0.050			
0.9381	60039.65	3.3890	3.3890	-0.2405	25.29	0.12	-0.050			
0.9384	60055.01	3.3880	3.3882	-0.2396	25.29	0.12	-0.050			
0.9386	60070.51	3.3870	3.3869	-0.2377	25.29	0.12	-0.050			
0.9388	60085.49	3.3860	3.3860	-0.2361	25.29	0.12	-0.050			
0.9391	60100.56	3.3850	3.3851	-0.2351	25.29	0.12	-0.050			
0.9393	60115.63	3.3840	3.3840	-0.2342	25.29	0.12	-0.050			
0.9395	60130.58	3.3830	3.3830	-0.2331	25.29	0.12	-0.050			
0.9398	60145.60	3.3820	3.3818	-0.2315	25.29	0.12	-0.050			
0.9400	60160.58	3.3810	3.3809	-0.2306	25.29	0.12	-0.050			
0.9402	60175.29	3.3800	3.3801	-0.2292	25.29	0.12	-0.050			
0.9405	60189.93	3.3790	3.3789	-0.2277	25.30	0.13	-0.050			
0.9407	60204.57	3.3780	3.3780	-0.2265	25.30	0.13	-0.050	0.435	0.686	
0.9409	60219.01	3.3770	3.3769	-0.2249	25.30	0.13	-0.050			
0.9411	60233.07	3.3760	3.3758	-0.2242	25.30	0.13	-0.050			
0.9414	60247.38	3.3750	3.3751	-0.2230	25.31	0.14	-0.050			
0.9416	60261.78	3.3740	3.3741	-0.2214	25.31	0.14	-0.050			
0.9418	60275.87	3.3730	3.3729	-0.2199	25.31	0.14	-0.050			
0.9420	60289.90	3.3720	3.3721	-0.2186	25.31	0.14	-0.050			
0.9422	60303.85	3.3710	3.3709	-0.2173	25.31	0.14	-0.050			
0.9425	60317.13	3.3700	3.3700	-0.2179	25.31	0.14	-0.050			
0.9427	60331.06	3.3690	3.3691	-0.2173	25.31	0.14	-0.050			
0.9429	60344.66	3.3680	3.3679	-0.2177	25.31	0.14	-0.050			
0.9431	60358.04	3.3670	3.3670	-0.2164	25.31	0.14	-0.050			
0.9433	60371.90	3.3660	3.3661	-0.2165	25.31	0.14	-0.050			
0.9435	60386.15	3.3650	3.3649	-0.2158	25.31	0.14	-0.050			
0.9437	60399.94	3.3640	3.3640	-0.2155	25.31	0.14	-0.050			
0.9440	60413.73	3.3630	3.3633	-0.2152	25.31	0.14	-0.050			
0.9442	60427.54	3.3620	3.3621	-0.2138	25.31	0.14	-0.050			
0.9444	60441.21	3.3610	3.3611	-0.2134	25.31	0.14	-0.050			
0.9446	60454.85	3.3600	3.3592	-0.2130	25.31	0.14	-0.050			
0.9448	60468.85	3.3590	3.3590	-0.2128	25.31	0.14	-0.050			
0.9450	60482.45	3.3580	3.3580	-0.2121	25.31	0.14	-0.050			
0.9452	60496.00	3.3570	3.3572	-0.2113	25.31	0.14	-0.050			
0.9455	60509.76	3.3560	3.3561	-0.2110	25.31	0.14	-0.050			
0.9457	60523.23	3.3550	3.3552	-0.2100	25.31	0.14	-0.050			
0.9459	60536.75	3.3540	3.3541	-0.2093	25.31	0.14	-0.050			
0.9461	60550.12	3.3530	3.3529	-0.2083	25.31	0.14	-0.050			
0.9463	60563.49	3.3520	3.3519	-0.2069	25.31	0.14	-0.050			
0.9465	60576.69	3.3510	3.3510	-0.2058	25.31	0.14	-0.050			
0.9467	60590.37	3.3500	3.3498	-0.2053	25.31	0.14	-0.050			
0.9469	60603.24	3.3490	3.3489	-0.2044	25.31	0.14	-0.050			
0.9471	60615.68	3.3480	3.3482	-0.2016	25.31	0.14	-0.050			
0.9473	60628.56	3.3470	3.3470	-0.2008	25.31	0.14	-0.050			
0.9475	60641.47	3.3460	3.3459	-0.1997	25.31	0.14	-0.050			
0.9477	60654.18	3.3450	3.3451	-0.1987	25.30	0.13	-0.050			
0.9479	60666.87	3.3440	3.3440	-0.1979	25.30	0.13	-0.050			
0.9481	60679.36	3.3430	3.3430	-0.1975	25.30	0.13	-0.050			
0.9483	60692.16	3.3420	3.3421	-0.1972	25.29	0.12	-0.050			
0.9485	60704.76	3.3410	3.3409	-0.1964	25.29	0.12	-0.050			
0.9487	60717.31	3.3400	3.3400	-0.1955	25.28	0.11	-0.050			
0.9489	60729.72	3.3390	3.3390	-0.1944	25.28	0.11	-0.050			
0.9491	60742.13	3.3380	3.3380	-0.1936	25.27	0.10	-0.050			
0.9493	60754.50	3.3370	3.3370	-0.1928	25.27	0.10	-0.050			
0.9495	60766.64	3.3360	3.3360	-0.1918	25.27	0.10	-0.050			
0.9497	60778.89	3.3350	3.3350	-0.1911	25.27	0.10	-0.050			
0.9499	60791.10	3.3340	3.3340	-0.1905	25.27	0.10	-0.050			
0.9501	60803.27	3.3330	3.3329	-0.1898	25.27	0.10	-0.050			
0.9502	60815.35	3.3320	3.3319	-0.1891	25.27	0.10	-0.050			
0.9504	60827.43	3.3310	3.3310	-0.1885	25.26	0.09	-0.050			
0.9506	60839.47	3.3300	3.3301	-0.1879	25.26	0.09	-0.050			
0.9508	60851.79	3.3290	3.3291	-0.1869	25.26	0.09	-0.050			
0.9510	60863.72	3.3280	3.3279	-0.1860	25.26	0.09	-0.050			
0.9512	60875.59	3.3270	3.3269	-0.1851	25.26	0.09	-0.050			
0.9514	60887.28	3.3260	3.3260	-0.1846	25.25	0.08	-0.050			
0.9515	60899.06	3.3250	3.3251	-0.1838	25.25	0.08	-0.050			
0.9517	60910.80	3.3240	3.3240	-0.1830	25.25	0.08	-0.050			
0.9519	60922.59	3.3230	3.3229	-0.1824	25.25	0.08	-0.050			
0.9521	60934.25	3.3220	3.3221	-0.1815	25.25	0.08	-0.050			
0.9523	60945.83	3.3210	3.3210	-0.1806	25.25	0.08	-0.050			
0.9525	60957.18	3.3200	3.3200	-0.1794	25.25	0.08	-0.050			
0.9526	60968.73	3.3190	3.3191	-0.1785	25.25	0.08	-0.050			
0.9528	60980.12	3.3180	3.3179	-0.1777	25.25	0.08	-0.050			
0.9530	60991.47	3.3170	3.3168	-0.1769	25.25	0.08	-0.050			
0.9532	61002.92	3.3160	3.3160	-0.1764	25.25	0.08	-0.050			
0.9533	61013.93	3.3150	3.3150	-0.1761	25.25	0.08	-0.050			
0.9535	61025.18	3.3140	3.3140	-0.1754	25.25	0.08	-0.050			
0.9537	61036.22	3.3130	3.3131	-0.1744	25.25	0.08	-0.050			
0.9539	61047.36	3.3120	3.3121	-0.1739	25.26	0.09	-0.050			
0.9540	61058.48	3.3110	3.3110	-0.1733	25.26	0.09	-0.050			
0.9542	61069.55	3.3100	3.3100	-0.1727	25.26	0.09	-0.050			
0.9544	61080.50	3.3090	3.3090	-0.1720	25.26	0.09	-0.050			
0.9546	61091.49	3.3080	3.3080	-0.1716	25.26	0.09	-0.050			
0.9547	61102.51	3.3070	3.3069	-0.1709	25.27	0.10	-0.050			
0.9549	61113.54	3.3060	3.3059	-0.1706	25.27	0.10	-0.050			
0.9551	61124.44	3.3050	3.3050	-0.1700	25.27	0.10	-0.050			
0.9552	61135.24	3.3040	3.3040	-0.1695	25.27	0.10	-0.050			
0.9554	61146.07	3.3030	3.3030	-0.1689	25.27	0.10	-0.050			
0.9556	61156.67	3.3020	3.3020	-0.1680	25.27	0.10	-0.050			
0.9557	61167.41	3.3010	3.3011	-0.1676	25.27	0.10	-0.050			
0.9559	61178.06	3.3000	3.3001	-0.1674	25.27	0.10	-0.050			
0.9561	61188.84	3.2990	3.2990	-0.1673	25.28	0.11	-0.050			
0.9562	61199.53	3.2980	3.2980	-0.1668	25.28	0.11	-0.050			
0.9564	61210.20	3.2970	3.2971	-0.1664	25.28	0.11	-0.050			
0.9566	61220.89	3.2960	3.2960	-0.1658	25.29	0.12	-0.050			
0.9567	61231.54	3.2950	3.2949	-0.1655	25.29	0.12	-0.050			
0.9569	61242.11	3.2940	3.2940	-0.1649	25.29	0.12	-0.050			
0.9571	61252.65	3.2930	3.2931	-0.1644	25.29	0.12	-0.050			
0.9572	61263.21	3.2920	3.2920	-0.1637	25.29	0.12	-0.050			
0.9574	61273.53	3.2910	3.2909	-0.1628	25.29	0.12	-0.050			
0.9576	61283.94	3.2900	3.2899	-0.1624	25.29	0.12	-0.050			
0.9577	61294.32	3.2890	3.2891	-0.1619	25.29	0.12	-0.050			
0.9579	61304.70	3.2880	3.2880	-0.1613	25.29	0.12	-0.050			
0.9580	61315.15	3.2870	3.2870	-0.1611	25.29	0.12	-0.050			
0.9582	61325.44	3.2860	3.2861	-0.1605	25.29	0.12	-0.050			
0.9584	61335.69	3.2850	3.2851	-0.1599	25.29	0.12	-0.050			
0.9585	61345.87	3.2840	3.2840	-0.1597	25.29	0.12	-0.050			
0.9587	61356.08	3.2830	3.2830	-0.1592	25.30	0.13	-0.050			
0.9588	61366.25	3.2820	3.2820	-0.1586	25.30	0.13	-0.050			
0.9590	61376.38	3.2810	3.2810	-0.1580	25.31	0.14	-0.050			
0.9592	61386.39	3.2800	3.2800	-0.1573	25.31	0.14	-0.050			
0.9593	61396.52	3.2790	3.2790	-0.1566	25.31	0.14	-0.050			
0.9595	61406.52	3.2780	3.2779	-0.1560	25.31	0.14	-0.050			
0.9596	61416.49	3.2770	3.2769	-0.1554	25.31	0.14	-0.050			
0.9598	61426.21	3.2760	3.2758	-0.1548	25.31	0.14	-0.050			
0.9599	61436.10	3.2750	3.2750	-0.1544	25.31	0.14	-0.050			
0.9601	61445.97	3.2740	3.2741	-0.1539	25.31	0.14	-0.050			
0.9602	61455.81	3.2730	3.2731	-0.1535	25.31	0.14	-0.050			
0.9604	61465.72	3.2720	3.2720	-0.1531	25.31	0.14	-0.050			
0.9606	61475.50	3.2710	3.2710	-0.1526	25.32	0.15	-0.050			
0.9607	61485.25	3.2700	3.2700	-0.1521	25.32	0.15	-0.050	-0.325	0.771	
0.9609	61494.97	3.2690	3.2691	-0.1516	25.32	0.15	-0.050			
0.9610	61504.71	3.2680	3.2679	-0.1512	25.32	0.15	-0.050			
0.9612	61514.43	3.2670	3.2669	-0.1504	25.32	0.15	-0.050			
0.9613	61524.04	3.2660	3.2659	-0.1498	25.33	0.16	-0.050			
0.9615	61533.61	3.2650	3.2651	-0.1492	25.33	0.16	-0.050			
0.9616	61543.17	3.2640	3.2640	-0.1486	25.33	0.16	-0.050			
0.9618	61552.57	3.2630	3.2630	-0.1482	25.33	0.16	-0.050			
0.9619	61562.04	3.2620	3.2621	-0.1477	25.33	0.16	-0.050			
0.9621	61571.48	3.2610	3.2611	-0.1472	25.33	0.16	-0.050			
0.9622	61580.88	3.2600	3.2600	-0.1466	25.33	0.16	-0.050			
0.9623	61590.10	3.2590	3.2590	-0.1461	25.33	0.16	-0.050			
0.9625	61599.44	3.2580	3.2580	-0.1457	25.33	0.16	-0.050			
0.9626	61608.75	3.2570	3.2571	-0.1453	25.33	0.16	-0.050			
0.9628	61618.09	3.2560	3.2560	-0.1449	25.34	0.17	-0.050			
0.9629	61627.36	3.2550	3.2550	-0.1445	25.34	0.17	-0.050			
0.9631	61636.63	3.2540	3.2539	-0.1438	25.34	0.17	-0.050			
0.9632	61645.82	3.2530	3.2529	-0.1433	25.35	0.18	-0.050			
0.9634	61654.84	3.2520	3.2521	-0.1425	25.35	0.18	-0.050			
0.9635	61663.95	3.2510	3.2511	-0.1421	25.35	0.18	-0.050			
0.9636	61673.17	3.2500	3.2500	-0.1414	25.35	0.18	-0.050			
0.9638	61682.20	3.2490	3.2490	-0.1408	25.35	0.18	-0.050			
0.9639	61691.19	3.2480	3.2480	-0.1403	25.35	0.18	-0.050			
0.9641	61700.27	3.2470	3.2469	-0.1399	25.35	0.18	-0.050			
0.9642	61709.21	3.2460	3.2459	-0.1393	25.35	0.18	-0.050			
0.9643	61718.05	3.2450	3.2450	-0.1389	25.35	0.18	-0.050			
0.9645	61726.92	3.2440	3.2441	-0.1383	25.35	0.18	-0.050			
0.9646	61735.87	3.2430	3.2431	-0.1380	25.36	0.19	-0.050			
0.9648	61744.68	3.2420	3.2421	-0.1373	25.36	0.19	-0.050			
0.9649	61753.44	3.2410	3.2410	-0.1367	25.36	0.19	-0.050			
0.9650	61762.11	3.2400	3.2399	-0.1362	25.36	0.19	-0.050			
0.9652	61770.72	3.2390	3.2390	-0.1354	25.36	0.19	-0.050			
0.9653	61779.37	3.2380	3.2380	-0.1349	25.36	0.19	-0.050			
0.9654	61787.99	3.2370	3.2369	-0.1343	25.37	0.20	-0.050			
0.9656	61796.43	3.2360	3.2360	-0.1342	25.37	0.20	-0.050			
0.9657	61805.01	3.2350	3.2350	-0.1338	25.37	0.20	-0.050			
0.9658	61813.39	3.2340	3.2340	-0.1330	25.37	0.20	-0.050			
0.9660	61821.90	3.2330	3.2331	-0.1327	25.37	0.20	-0.050			
0.9661	61830.38	3.2320	3.2320	-0.1324	25.37	0.20	-0.050			
0.9662	61838.89	3.2310	3.2309	-0.1319	25.37	0.20	-0.050			
0.9664	61847.31	3.2300	3.2300	-0.1315	25.37	0.20	-0.050			
0.9665	61855.72	3.2290	3.2291	-0.1312	25.37	0.20	-0.050			
0.9666	61864.11	3.2280	3.2280	-0.1309	25.37	0.20	-0.050			
0.9668	61872.47	3.2270	3.2271	-0.1305	25.37	0.20	-0.050			
0.9669	61880.81	3.2260	3.2261	-0.1302	25.38	0.21	-0.050			
0.9670	61889.17	3.2250	3.2248	-0.1299	25.38	0.21	-0.050			
0.9671	61897.47	3.2240	3.2238	-0.1296	25.38	0.21	-0.050			
0.9673	61905.75	3.2230	3.2228	-0.1292	25.38	0.21	-0.050			
0.9674	61914.01	3.2220	3.2220	-0.1288	25.39	0.22	-0.050			
0.9675	61922.28	3.2210	3.2210	-0.1283	25.39	0.22	-0.050			
0.9677	61930.48	3.2200	3.2201	-0.1279	25.39	0.22	-0.050			
0.9678	61938.65	3.2190	3.2190	-0.1275	25.39	0.22	-0.050			
0.9679	61946.80	3.2180	3.2177	-0.1271	25.39	0.22	-0.050			
0.9680	61954.92	3.2170	3.2170	-0.1267	25.39	0.22	-0.050			
0.9682	61962.98	3.2160	3.2161	-0.1267	25.39	0.22	-0.050			
0.9683	61971.08	3.2150	3.2152	-0.1263	25.39	0.22	-0.050			
0.9684	61979.15	3.2140	3.2139	-0.1259	25.39	0.22	-0.050			
0.9685	61987.20	3.2130	3.2128	-0.1256	25.40	0.23	-0.050			
0.9687	61995.22	3.2120	3.2120	-0.1252	25.40	0.23	-0.050			
0.9688	62003.27	3.2110	3.2111	-0.1244	25.40	0.23	-0.050			
0.9689	62011.22	3.2100	3.2102	-0.1240	25.40	0.23	-0.050			
0.9690	62019.14	3.2090	3.2090	-0.1236	25.41	0.24	-0.050			
0.9692	62027.04	3.2080	3.2079	-0.1232	25.41	0.24	-0.050			
0.9693	62034.91	3.2070	3.2069	-0.1228	25.41	0.24	-0.050			
0.9694	62042.76	3.2060	3.2060	-0.1224	25.41	0.24	-0.050			
0.9695	62050.62	3.2050	3.2052	-0.1222	25.41	0.24	-0.050			
0.9697	62058.42	3.2040	3.2041	-0.1218	25.41	0.24	-0.050			
0.9698	62066.21	3.2030	3.2028	-0.1214	25.41	0.24	-0.050			
0.9699	62073.96	3.2020	3.2020	-0.1210	25.41	0.24	-0.050			
0.9700	62081.65	3.2010	3.2011	-0.1205	25.41	0.24	-0.050			
0.9701	62089.35	3.2000	3.2002	-0.1201	25.41	0.24	-0.050			
0.9703	62097.03	3.1990	3.1991	-0.1197	25.42	0.25	-0.050			
0.9704	62104.68	3.1980	3.1978	-0.1193	25.42	0.25	-0.050			
0.9705	62112.30	3.1970	3.1970	-0.1189	25.42	0.25	-0.050			
0.9706	62119.95	3.1960	3.1961	-0.1186	25.42	0.25	-0.050			
0.9707	62127.55	3.1950	3.1949	-0.1181	25.43	0.26	-0.050			
0.9709	62135.10	3.1940	3.1941	-0.1176	25.43	0.26	-0.050			
0.9710	62142.61	3.1930	3.1931	-0.1172	25.43	0.26	-0.050			
0.9711	62150.10	3.1920	3.1920	-0.1167	25.43	0.26	-0.050			
0.9712	62157.45	3.1910	3.1908	-0.1161	25.43	0.26	-0.050			
0.9713	62164.87	3.1900	3.1899	-0.1157	25.43	0.26	-0.050			
0.9714	62172.22	3.1890	3.1891	-0.1154	25.43	0.26	-0.050			
0.9716	62179.60	3.1880	3.1880	-0.1151	25.43	0.26	-0.050			
0.9717	62186.95	3.1870	3.1871	-0.1147	25.43	0.26	-0.050			
0.9718	62194.29	3.1860	3.1860	-0.1144	25.43	0.26	-0.050			
0.9719	62201.72	3.1850	3.1850	-0.1142	25.44	0.27	-0.050			
0.9720	62209.01	3.1840	3.1840	-0.1138	25.44	0.27	-0.050			
0.9721	62216.32	3.1830	3.1830	-0.1132	25.44	0.27	-0.050			
0.9722	62223.55	3.1820	3.1820	-0.1127	25.44	0.27	-0.050			
0.9724	62230.76	3.1810	3.1810	-0.1123	25.45	0.28	-0.050			
0.9725	62237.85	3.1800	3.1801	-0.1117	25.45	0.28	-0.050			
0.9726	62244.99	3.1790	3.1790	-0.1113	25.45	0.28	-0.050			
0.9727	62252.06	3.1780	3.1779	-0.1110	25.45	0.28	-0.050			
0.9728	62259.15	3.1770	3.1771	-0.1106	25.45	0.28	-0.050			
0.9729	62266.22	3.1760	3.1763	-0.1102	25.45	0.28	-0.050			
0.9730	62273.26	3.1750	3.1750	-0.1098	25.45	0.28	-0.050			
0.9731	62280.27	3.1740	3.1739	-0.1094	25.45	0.28	-0.050			
0.9732	62287.26	3.1730	3.1730	-0.1090	25.45	0.28	-0.050			
0.9733	62294.09	3.1720	3.1721	-0.1091	25.45	0.28	-0.050			
0.9735	62301.06	3.1710	3.1710	-0.1088	25.45	0.28	-0.050			
0.9736	62308.01	3.1700	3.1700	-0.1085	25.45	0.28	-0.050			
0.9737	62314.88	3.1690	3.1691	-0.1081	25.45	0.28	-0.050			
0.9738	62321.80	3.1680	3.1681	-0.1079	25.46	0.29	-0.050			
0.9739	62328.69	3.1670	3.1669	-0.1076	25.46	0.29	-0.050			
0.9740	62335.53	3.1660	3.1659	-0.1075	25.46	0.29	-0.050			
0.9741	62342.40	3.1650	3.1650	-0.1073	25.46	0.29	-0.050			
0.9742	62349.26	3.1640	3.1639	-0.1071	25.46	0.29	-0.050			
0.9743	62355.91	3.1630	3.1630	-0.1066	25.46	0.29	-0.050			
0.9744	62362.73	3.1620	3.1620	-0.1065	25.46	0.29	-0.050			
0.9745	62369.54	3.1610	3.1610	-0.1064	25.46	0.29	-0.050			
0.9746	62376.59	3.1600	3.1600	-0.1056	25.47	0.30	-0.050			
0.9747	62383.34	3.1590	3.1592	-0.1054	25.47	0.30	-0.050			
0.9748	62390.30	3.1580	3.1581	-0.1056	25.47	0.30	-0.050			
0.9750	62397.04	3.1570	3.1568	-0.1052	25.47	0.30	-0.050			
0.9751	62403.76	3.1560	3.1560	-0.1048	25.47	0.30	-0.050			
0.9752	62410.45	3.1550	3.1549	-0.1044	25.47	0.30	-0.050			
0.9753	62417.12	3.1540	3.1540	-0.1039	25.47	0.30	-0.050			
0.9754	62423.76	3.1530	3.1531	-0.1035	25.47	0.30	-0.050			
0.9755	62430.51	3.1520	3.1520	-0.1034	25.47	0.30	-0.050			
0.9756	62437.12	3.1510	3.1509	-0.1029	25.47	0.30	-0.050			
0.9757	62443.69	3.1500	3.1500	-0.1024	25.47	0.30	-0.050			
0.9758	62450.22	3.1490	3.1491	-0.1019	25.47	0.30	-0.050			
0.9759	62456.63	3.1480	3.1481	-0.1018	25.47	0.30	-0.050			
0.9760	62463.13	3.1470	3.1469	-0.1014	25.47	0.30	-0.050			
0.9761	62469.54	3.1460	3.1459	-0.1008	25.47	0.30	-0.050			
0.9762	62475.98	3.1450	3.1449	-0.1004	25.47	0.30	-0.050			
0.9763	62482.39	3.1440	3.1440	-0.1000	25.47	0.30	-0.050			
0.9764	62488.79	3.1430	3.1431	-0.0997	25.47	0.30	-0.050			
0.9765	62495.15	3.1420	3.1420	-0.0993	25.47	0.30	-0.050			
0.9766	62501.49	3.1410	3.1409	-0.0989	25.47	0.30	-0.050			
0.9767	62507.69	3.1400	3.1401	-0.0983	25.47	0.30	-0.050			
0.9768	62513.97	3.1390	3.1389	-0.0980	25.47	0.30	-0.050			
0.9769	62520.24	3.1380	3.1379	-0.0977	25.47	0.30	-0.050			
0.9770	62526.48	3.1370	3.1371	-0.0974	25.47	0.30	-0.050			
0.9771	62532.70	3.1360	3.1362	-0.0971	25.47	0.30	-0.050			
0.9772	62538.92	3.1350	3.1351	-0.0967	25.46	0.29	-0.050			
0.9773	62545.20	3.1340	3.1340	-0.0966	25.46	0.29	-0.050			
0.9774	62551.37	3.1330	3.1330	-0.0963	25.46	0.29	-0.050			
0.9775	62557.52	3.1320	3.1321	-0.0959	25.46	0.29	-0.050			
0.9776	62563.65	3.1310	3.1311	-0.0955	25.46	0.29	-0.050			
0.9777	62569.75	3.1300	3.1299	-0.0952	25.46	0.29	-0.050			
0.9777	62575.77	3.1290	3.1289	-0.0950	25.46	0.29	-0.050			
0.9778	62581.79	3.1280	3.1279	-0.0945	25.46	0.29	-0.050			
0.9779	62587.84	3.1270	3.1269	-0.0942	25.47	0.30	-0.050			
0.9780	62593.86	3.1260	3.1259	-0.0939	25.47	0.30	-0.050			
0.9781	62599.86	3.1250	3.1249	-0.0936	25.47	0.30	-0.050			
0.9782	62605.84	3.1240	3.1239	-0.0933	25.47	0.30	-0.050			
0.9783	62611.68	3.1230	3.1232	-0.0935	25.47	0.30	-0.050			
0.9784	62617.54	3.1220	3.1222	-0.0929	25.47	0.30	-0.050			
0.9785	62623.48	3.1210	3.1210	-0.0928	25.47	0.30	-0.050			
0.9786	62629.41	3.1200	3.1200	-0.0926	25.47	0.30	-0.050			
0.9787	62635.34	3.1190	3.1191	-0.0925	25.47	0.30	-0.050			
0.9788	62641.25	3.1180	3.1180	-0.0924	25.48	0.31	-0.050			
0.9789	62647.16	3.1170	3.1169	-0.0922	25.48	0.31	-0.050			
0.9790	62653.14	3.1160	3.1159	-0.0916	25.48	0.31	-0.050			
0.9790	62659.04	3.1150	3.1149	-0.0915	25.48	0.31	-0.050			
0.9791	62664.89	3.1140	3.1140	-0.0913	25.48	0.31	-0.050			
0.9792	62670.72	3.1130	3.1130	-0.0910	25.48	0.31	-0.050			
0.9793	62676.54	3.1120	3.1120	-0.0908	25.48	0.31	-0.050			
0.9794	62682.35	3.1110	3.1110	-0.0906	25.48	0.31	-0.050			
0.9795	62688.07	3.1100	3.1101	-0.0906	25.48	0.31	-0.050			
0.9796	62693.87	3.1090	3.1091	-0.0905	25.47	0.30	-0.050			
0.9797	62699.66	3.1080	3.1081	-0.0903	25.47	0.30	-0.050			
0.9798	62705.43	3.1070	3.1070	-0.0901	25.47	0.30	-0.050			
0.9799	62711.19	3.1060	3.1060	-0.0899	25.47	0.30	-0.050			
0.9800	62717.17	3.1050	3.1051	-0.0892	25.47	0.30	-0.050			
0.9800	62722.87	3.1040	3.1041	-0.0889	25.47	0.30	-0.050			
0.9801	62728.62	3.1030	3.1030	-0.0889	25.47	0.30	-0.050			
0.9802	62734.30	3.1020	3.1019	-0.0885	25.48	0.31	-0.050			
0.9803	62739.95	3.1010	3.1009	-0.0881	25.48	0.31	-0.050			
0.9804	62745.58	3.1000	3.0999	-0.0877	25.48	0.31	-0.050			
0.9805	62751.18	3.0990	3.0988	-0.0873	25.48	0.31	-0.050			
0.9806	62756.75	3.0980	3.0979	-0.0870	25.48	0.31	-0.050			
0.9807	62762.31	3.0970	3.0969	-0.0866	25.49	0.32	-0.050			
0.9807	62767.75	3.0960	3.0962	-0.0863	25.49	0.32	-0.050	0.574	0.947	
0.9808	62773.26	3.0950	3.0952	-0.0860	25.49	0.32	-0.050			
0.9809	62778.76	3.0940	3.0940	-0.0857	25.49	0.32	-0.050			
0.9810	62784.23	3.0930	3.0929	-0.0854	25.49	0.32	-0.050			
0.9811	62789.69	3.0920	3.0919	-0.0851	25.49	0.32	-0.050			
0.9812	62795.12	3.0910	3.0909	-0.0848	25.49	0.32	-0.050			
0.9813	62800.69	3.0900	3.0899	-0.0845	25.49	0.32	-0.050			
0.9813	62805.75	3.0890	3.0890	-0.0845	25.49	0.32	-0.050			
0.9814	62811.15	3.0880	3.0879	-0.0843	25.49	0.32	-0.050			
0.9815	62816.54	3.0870	3.0869	-0.0841	25.49	0.32	-0.050			
0.9816	62821.92	3.0860	3.0860	-0.0839	25.49	0.32	-0.050			
0.9817	62826.98	3.0850	3.0852	-0.0832	25.49	0.32	-0.050			
0.9818	62832.30	3.0840	3.0840	-0.0832	25.49	0.32	-0.050			
0.9818	62837.62	3.0830	3.0830	-0.0832	25.49	0.32	-0.050			
0.9819	62843.22	3.0820	3.0819	-0.0825	25.49	0.32	-0.050			
0.9820	62848.50	3.0810	3.0810	-0.0824	25.49	0.32	-0.050			
0.9821	62853.77	3.0800	3.0800	-0.0822	25.49	0.32	-0.050			
0.9822	62859.02	3.0790	3.0790	-0.0820	25.49	0.32	-0.050			
0.9823	62864.27	3.0780	3.0779	-0.0819	25.49	0.32	-0.050			
0.9823	62869.50	3.0770	3.0769	-0.0817	25.49	0.32	-0.050			
0.9824	62874.98	3.0760	3.0760	-0.0818	25.49	0.32	-0.050			
0.9825	62880.20	3.0750	3.0752	-0.0815	25.49	0.32	-0.050			
0.9826	62885.41	3.0740	3.0741	-0.0812	25.49	0.32	-0.050			
0.9827	62890.60	3.0730	3.0730	-0.0809	25.49	0.32	-0.050			
0.9827	62895.77	3.0720	3.0720	-0.0806	25.49	0.32	-0.050			
0.9828	62900.92	3.0710	3.0710	-0.0803	25.49	0.32	-0.050			
0.9829	62906.05	3.0700	3.0700	-0.0800	25.49	0.32	-0.050			
0.9830	62911.27	3.0690	3.0690	-0.0798	25.49	0.32	-0.050			
0.9831	62916.37	3.0680	3.0680	-0.0795	25.49	0.32	-0.050			
0.9831	62921.45	3.0670	3.0670	-0.0791	25.49	0.32	-0.050			
0.9832	62926.50	3.0660	3.0660	-0.0787	25.49	0.32	-0.050			
0.9833	62931.43	3.0650	3.0650	-0.0786	25.49	0.32	-0.050			
0.9834	62936.45	3.0640	3.0640	-0.0783	25.49	0.32	-0.050			
0.9835	62941.45	3.0630	3.0629	-0.0780	25.49	0.32	-0.050			
0.9835	62946.28	3.0620	3.0619	-0.0774	25.49	0.32	-0.050			
0.9836	62951.23	3.0610	3.0610	-0.0772	25.49	0.32	-0.050			
0.9837	62956.16	3.0600	3.0600	-0.0770	25.49	0.32	-0.050			
0.9838	62961.08	3.0590	3.0590	-0.0768	25.49	0.32	-0.050			
0.9838	62965.92	3.0580	3.0580	-0.0767	25.49	0.32	-0.050			
0.9839	62970.83	3.0570	3.0570	-0.0765	25.49	0.32	-0.050			
0.9840	62975.72	3.0560	3.0559	-0.0763	25.49	0.32	-0.050			
0.9841	62980.60	3.0550	3.0549	-0.0761	25.49	0.32	-0.050			
0.9841	62985.41	3.0540	3.0541	-0.0759	25.49	0.32	-0.050			
0.9842	62990.26	3.0530	3.0531	-0.0757	25.49	0.32	-0.050			
0.9843	62995.10	3.0520	3.0520	-0.0756	25.49	0.32	-0.050			
0.9844	62999.99	3.0510	3.0510	-0.0753	25.49	0.32	-0.050			
0.9845	63004.80	3.0500	3.0500	-0.0751	25.49	0.32	-0.050			
0.9845	63009.60	3.0490	3.0490	-0.0749	25.49	0.32	-0.050			
0.9846	63014.39	3.0480	3.0479	-0.0747	25.49	0.32	-0.050			
0.9847	63019.17	3.0470	3.0469	-0.0745	25.49	0.32	-0.050			
0.9847	63023.93	3.0460	3.0459	-0.0743	25.49	0.32	-0.050			
0.9848	63028.70	3.0450	3.0449	-0.0741	25.49	0.32	-0.050			
0.9849	63033.44	3.0440	3.0438	-0.0739	25.49	0.32	-0.050			
0.9850	63038.22	3.0430	3.0431	-0.0736	25.49	0.32	-0.050			
0.9850	63042.92	3.0420	3.0422	-0.0734	25.49	0.32	-0.050			
0.9851	63047.61	3.0410	3.0411	-0.0731	25.49	0.32	-0.050			
0.9852	63052.28	3.0400	3.0400	-0.0729	25.49	0.32	-0.050			
0.9853	63056.94	3.0390	3.0390	-0.0726	25.48	0.31	-0.050			
0.9853	63061.69	3.0380	3.0380	-0.0725	25.48	0.31	-0.050			
0.9854	63066.32	3.0370	3.0370	-0.0722	25.48	0.31	-0.050			
0.9855	63070.78	3.0360	3.0360	-0.0722	25.48	0.31	-0.050			
0.9856	63075.40	3.0350	3.0350	-0.0720	25.48	0.31	-0.050			
0.9856	63080.00	3.0340	3.0340	-0.0718	25.47	0.30	-0.050			
0.9857	63084.58	3.0330	3.0330	-0.0716	25.47	0.30	-0.050			
0.9858	63089.16	3.0320	3.0320	-0.0714	25.47	0.30	-0.050			
0.9858	63093.59	3.0310	3.0311	-0.0710	25.47	0.30	-0.050			
0.9859	63098.13	3.0300	3.0301	-0.0708	25.47	0.30	-0.050			
0.9860	63102.65	3.0290	3.0291	-0.0707	25.47	0.30	-0.050			
0.9860	63107.20	3.0280	3.0280	-0.0705	25.47	0.30	-0.050			
0.9861	63111.70	3.0270	3.0269	-0.0703	25.47	0.30	-0.050			
0.9862	63116.20	3.0260	3.0259	-0.0702	25.47	0.30	-0.050			
0.9863	63120.69	3.0250	3.0249	-0.0700	25.48	0.31	-0.050			
0.9863	63125.16	3.0240	3.0239	-0.0699	25.48	0.31	-0.050			
0.9864	63129.59	3.0230	3.0230	-0.0697	25.48	0.31	-0.050			
0.9865	63134.05	3.0220	3.0220	-0.0695	25.48	0.31	-0.050			
0.9865	63138.49	3.0210	3.0210	-0.0694	25.48	0.31	-0.050			
0.9866	63142.93	3.0200	3.0201	-0.0693	25.48	0.31	-0.050			
0.9867	63147.45	3.0190	3.0192	-0.0688	25.48	0.31	-0.050			
0.9867	63151.85	3.0180	3.0180	-0.0686	25.48	0.31	-0.050			
0.9868	63156.24	3.0170	3.0169	-0.0684	25.48	0.31	-0.050			
0.9869	63160.77	3.0160	3.0159	-0.0685	25.48	0.31	-0.050			
0.9870	63165.14	3.0150	3.0150	-0.0682	25.48	0.31	-0.050			
0.9870	63169.50	3.0140	3.0140	-0.0679	25.48	0.31	-0.050			
0.9871	63173.84	3.0130	3.0130	-0.0676	25.47	0.30	-0.050			
0.9872	63178.16	3.0120	3.0120	-0.0674	25.47	0.30	-0.050			
0.9872	63182.46	3.0110	3.0110	-0.0671	25.47	0.30	-0.050			
0.9873	63186.75	3.0100	3.0100	-0.0668	25.47	0.30	-0.050			
0.9874	63191.01	3.0090	3.0091	-0.0665	25.47	0.30	-0.050			
0.9874	63195.32	3.0080	3.0080	-0.0661	25.47	0.30	-0.050			
0.9875	63199.54	3.0070	3.0070	-0.0658	25.47	0.30	-0.050			
0.9876	63203.74	3.0060	3.0060	-0.0655	25.47	0.30	-0.050			
0.9876	63207.92	3.0050	3.0050	-0.0651	25.47	0.30	-0.050			
0.9877	63212.08	3.0040	3.0040	-0.0648	25.47	0.30	-0.050			
0.9878	63216.21	3.0030	3.0030	-0.0644	25.47	0.30	-0.050			
