Ah_balance (normalized)	Ah_balance (mAh)	Voltage - fit (V)	Voltage -  interpolate (V)	dQ/dV (1/V)	Temperature (°C)	Temperature - diff (°C)	Current (C)	R_DC 0ms (mOhm)	R_DC 50ms (mOhm)	R_DC 50 ms PEC (mOhm)
0.1987	12716.54	3.9280	3.9279	-0.0917	25.96	-0.02	-1.500			
0.1990	12737.71	3.9250	3.9248	-0.1220	25.96	-0.02	-1.500			
0.1994	12763.64	3.9220	3.9219	-0.1482	25.96	-0.02	-1.500			
0.1999	12794.47	3.9190	3.9191	-0.1750	25.96	-0.02	-1.500			
0.2005	12831.06	3.9160	3.9160	-0.1994	25.96	-0.02	-1.500			
0.2011	12872.26	3.9130	3.9129	-0.2257	25.96	-0.02	-1.500			
0.2018	12918.38	3.9100	3.9100	-0.2465	25.96	-0.02	-1.500			
0.2026	12968.09	3.9070	3.9070	-0.2686	25.96	-0.02	-1.500			
0.2035	13021.59	3.9040	3.9040	-0.2917	25.96	-0.02	-1.500			
0.2044	13079.65	3.9010	3.9009	-0.3145	25.96	-0.02	-1.500			
0.2053	13142.22	3.8980	3.8980	-0.3346	25.97	-0.01	-1.500			
0.2064	13208.75	3.8950	3.8950	-0.3562	25.97	-0.01	-1.500			
0.2075	13279.17	3.8920	3.8921	-0.3776	25.97	-0.01	-1.500			
0.2087	13354.47	3.8890	3.8890	-0.3985	25.97	-0.01	-1.500			
0.2099	13432.79	3.8860	3.8859	-0.4177	25.97	-0.01	-1.500			
0.2112	13514.68	3.8830	3.8830	-0.4367	25.97	-0.01	-1.500			
0.2125	13600.36	3.8800	3.8800	-0.4544	25.97	-0.01	-1.500			
0.2139	13689.92	3.8770	3.8770	-0.4719	25.97	-0.01	-1.500			
0.2154	13782.74	3.8740	3.8740	-0.4873	25.97	-0.01	-1.500			
0.2168	13877.85	3.8710	3.8709	-0.5016	25.97	-0.01	-1.500			
0.2184	13976.34	3.8680	3.8680	-0.5161	25.98	-0.00	-1.500			
0.2199	14076.76	3.8650	3.8650	-0.5277	25.98	-0.00	-1.500			
0.2216	14179.30	3.8620	3.8620	-0.5399	25.98	-0.00	-1.500			
0.2232	14284.35	3.8590	3.8591	-0.5508	25.98	-0.00	-1.500			
0.2249	14390.80	3.8560	3.8560	-0.5610	25.98	0.00	-1.500			
0.2266	14499.78	3.8530	3.8530	-0.5687	25.98	0.00	-1.500			
0.2283	14610.19	3.8500	3.8500	-0.5768	25.98	0.00	-1.500			
0.2300	14721.90	3.8470	3.8470	-0.5827	25.99	0.01	-1.500			
0.2318	14835.20	3.8440	3.8440	-0.5902	25.99	0.01	-1.500			
0.2336	14948.96	3.8410	3.8410	-0.5953	25.99	0.01	-1.500			
0.2354	15064.18	3.8380	3.8380	-0.5999	25.99	0.01	-1.500			
0.2372	15180.23	3.8350	3.8351	-0.6015	25.99	0.01	-1.500			
0.2390	15296.03	3.8320	3.8320	-0.6068	25.99	0.01	-1.500			
0.2408	15412.68	3.8290	3.8290	-0.6068	25.99	0.01	-1.500			
0.2427	15529.75	3.8260	3.8260	-0.6100	26.00	0.02	-1.500			
0.2445	15646.29	3.8230	3.8230	-0.6119	26.00	0.02	-1.500			
0.2463	15764.73	3.8200	3.8200	-0.6145	26.00	0.02	-1.500			
0.2482	15882.99	3.8170	3.8171	-0.6175	26.00	0.02	-1.500			
0.2500	16001.96	3.8140	3.8140	-0.6216	26.00	0.02	-1.500			
0.2519	16121.04	3.8110	3.8110	-0.6220	26.00	0.02	-1.500			
0.2538	16241.58	3.8080	3.8080	-0.6255	26.01	0.03	-1.500			
0.2556	16361.22	3.8050	3.8051	-0.6263	26.01	0.03	-1.500			
0.2575	16481.77	3.8020	3.8020	-0.6294	26.01	0.03	-1.500			
0.2594	16603.09	3.7990	3.7990	-0.6312	26.01	0.03	-1.500			
0.2613	16724.80	3.7960	3.7960	-0.6303	26.02	0.04	-1.500			
0.2632	16845.20	3.7930	3.7930	-0.6346	26.02	0.04	-1.500			
0.2651	16967.84	3.7900	3.7900	-0.6360	26.02	0.04	-1.500			
0.2670	17089.65	3.7870	3.7870	-0.6377	26.02	0.04	-1.500			
0.2689	17212.60	3.7840	3.7840	-0.6386	26.02	0.04	-1.500			
0.2709	17335.26	3.7810	3.7810	-0.6396	26.03	0.05	-1.500			
0.2728	17458.22	3.7780	3.7780	-0.6436	26.03	0.05	-1.500			
0.2747	17581.90	3.7750	3.7750	-0.6459	26.03	0.05	-1.500			
0.2766	17704.73	3.7720	3.7720	-0.6473	26.04	0.06	-1.500			
0.2786	17830.47	3.7690	3.7690	-0.6516	26.04	0.06	-1.500			
0.2805	17954.97	3.7660	3.7660	-0.6560	26.04	0.06	-1.500			
0.2825	18082.50	3.7630	3.7630	-0.6598	26.04	0.06	-1.500			
0.2845	18209.32	3.7600	3.7599	-0.6618	26.05	0.07	-1.500			
0.2865	18336.17	3.7570	3.7570	-0.6640	26.05	0.07	-1.500			
0.2885	18463.94	3.7540	3.7540	-0.6696	26.05	0.07	-1.500			
0.2905	18592.72	3.7510	3.7510	-0.6727	26.06	0.08	-1.500			
0.2925	18722.93	3.7480	3.7480	-0.6772	26.06	0.08	-1.500			
0.2946	18852.28	3.7450	3.7450	-0.6798	26.06	0.08	-1.500			
0.2966	18983.94	3.7420	3.7420	-0.6866	26.07	0.09	-1.500			
0.2987	19115.82	3.7390	3.7390	-0.6900	26.07	0.09	-1.500			
0.3007	19247.84	3.7360	3.7360	-0.6974	26.07	0.09	-1.500			
0.3028	19382.16	3.7330	3.7330	-0.7016	26.08	0.10	-1.500			
0.3050	19518.52	3.7300	3.7300	-0.7074	26.08	0.10	-1.500			
0.3071	19655.30	3.7270	3.7270	-0.7119	26.08	0.10	-1.500			
0.3092	19791.14	3.7240	3.7240	-0.7203	26.09	0.11	-1.500			
0.3114	19930.07	3.7210	3.7210	-0.7259	26.09	0.11	-1.500			
0.3136	20070.36	3.7180	3.7179	-0.7322	26.09	0.11	-1.500			
0.3158	20209.99	3.7150	3.7150	-0.7405	26.10	0.12	-1.500			
0.3180	20354.13	3.7120	3.7121	-0.7534	26.10	0.12	-1.500			
0.3203	20501.26	3.7090	3.7089	-0.7604	26.11	0.13	-1.500			
0.3226	20647.38	3.7060	3.7060	-0.7667	26.11	0.13	-1.500			
0.3249	20793.34	3.7030	3.7031	-0.7712	26.11	0.13	-1.500			
0.3272	20943.60	3.7000	3.7000	-0.7816	26.12	0.14	-1.500			
0.3296	21094.46	3.6970	3.6969	-0.7882	26.12	0.14	-1.500			
0.3320	21246.00	3.6940	3.6940	-0.7932	26.13	0.15	-1.500			
0.3344	21399.17	3.6910	3.6911	-0.8022	26.13	0.15	-1.500			
0.3368	21554.51	3.6880	3.6880	-0.8114	26.14	0.16	-1.500			
0.3392	21710.75	3.6850	3.6851	-0.8140	26.14	0.16	-1.500			
0.3417	21866.92	3.6820	3.6820	-0.8288	26.15	0.17	-1.500			
0.3442	22026.34	3.6790	3.6790	-0.8390	26.15	0.17	-1.500			
0.3467	22188.94	3.6760	3.6759	-0.8505	26.16	0.18	-1.500			
0.3493	22353.83	3.6730	3.6731	-0.8599	26.16	0.18	-1.500			
0.3519	22520.71	3.6700	3.6700	-0.8684	26.16	0.18	-1.500			
0.3545	22688.65	3.6670	3.6670	-0.8761	26.16	0.18	-1.500			
0.3571	22855.95	3.6640	3.6641	-0.8832	26.17	0.19	-1.500			
0.3598	23026.27	3.6610	3.6609	-0.8977	26.17	0.19	-1.500			
0.3625	23199.00	3.6580	3.6581	-0.9126	26.17	0.19	-1.500			
0.3653	23376.44	3.6550	3.6550	-0.9265	26.17	0.19	-1.500			
0.3681	23558.27	3.6520	3.6519	-0.9380	26.18	0.20	-1.500			
0.3709	23739.77	3.6490	3.6490	-0.9452	26.18	0.20	-1.500			
0.3738	23921.07	3.6460	3.6461	-0.9548	26.18	0.20	-1.500			
0.3766	24103.86	3.6430	3.6430	-0.9629	26.18	0.20	-1.500			
0.3795	24288.47	3.6400	3.6399	-0.9732	26.19	0.21	-1.500			
0.3825	24477.22	3.6370	3.6370	-0.9837	26.19	0.21	-1.500			
0.3854	24667.74	3.6340	3.6340	-1.0007	26.19	0.21	-1.500			
0.3885	24861.89	3.6310	3.6310	-1.0134	26.20	0.22	-1.500			
0.3915	25057.71	3.6280	3.6280	-1.0257	26.20	0.22	-1.500			
0.3946	25255.22	3.6250	3.6250	-1.0367	26.21	0.23	-1.500			
0.3977	25454.98	3.6220	3.6220	-1.0481	26.21	0.23	-1.500			
0.4009	25657.14	3.6190	3.6190	-1.0637	26.21	0.23	-1.500			
0.4041	25863.89	3.6160	3.6159	-1.0778	26.22	0.24	-1.500			
0.4074	26070.96	3.6130	3.6130	-1.0848	26.22	0.24	-1.500			
0.4106	26280.93	3.6100	3.6100	-1.0969	26.22	0.24	-1.500			
0.4139	26492.68	3.6070	3.6071	-1.1129	26.23	0.25	-1.500			
0.4173	26707.82	3.6040	3.6039	-1.1275	26.23	0.25	-1.500			
0.4207	26925.21	3.6010	3.6010	-1.1384	26.24	0.26	-1.500			
0.4241	27144.94	3.5980	3.5981	-1.1482	26.24	0.26	-1.500			
0.4276	27368.07	3.5950	3.5950	-1.1632	26.24	0.26	-1.500			
0.4311	27591.63	3.5920	3.5920	-1.1815	26.25	0.27	-1.500			
0.4347	27818.05	3.5890	3.5889	-1.1944	26.25	0.27	-1.500			
0.4383	28049.01	3.5860	3.5860	-1.2189	26.25	0.27	-1.500			
0.4420	28286.75	3.5830	3.5830	-1.2385	26.25	0.27	-1.500			
0.4458	28528.86	3.5800	3.5799	-1.2551	26.26	0.28	-1.500			
0.4496	28772.02	3.5770	3.5771	-1.2657	26.26	0.28	-1.500			
0.4534	29014.96	3.5740	3.5740	-1.2779	26.26	0.28	-1.500			
0.4572	29259.43	3.5710	3.5709	-1.2896	26.27	0.29	-1.500			
0.4610	29503.54	3.5680	3.5681	-1.3053	26.27	0.29	-1.500			
0.4650	29760.14	3.5650	3.5649	-1.3326	26.27	0.29	-1.500			
0.4691	30021.06	3.5620	3.5620	-1.3514	26.28	0.30	-1.500			
0.4732	30281.88	3.5590	3.5591	-1.3736	26.28	0.30	-1.500			
0.4773	30548.12	3.5560	3.5560	-1.3903	26.28	0.30	-1.500			
0.4815	30815.81	3.5530	3.5530	-1.4055	26.29	0.31	-1.500			
0.4857	31084.72	3.5500	3.5500	-1.4248	26.29	0.31	-1.500			
0.4900	31360.96	3.5470	3.5470	-1.4468	26.29	0.31	-1.500			
0.4944	31642.02	3.5440	3.5440	-1.4711	26.30	0.32	-1.500			
0.4989	31926.69	3.5410	3.5410	-1.4851	26.30	0.32	-1.500			
0.5033	32213.61	3.5380	3.5380	-1.4971	26.31	0.33	-1.500			
0.5079	32504.02	3.5350	3.5350	-1.5173	26.31	0.33	-1.500			
0.5124	32794.93	3.5320	3.5320	-1.5352	26.32	0.34	-1.500			
0.5171	33091.96	3.5290	3.5290	-1.5503	26.32	0.34	-1.500			
0.5217	33390.78	3.5260	3.5260	-1.5682	26.33	0.35	-1.500			
0.5265	33694.56	3.5230	3.5232	-1.5823	26.34	0.36	-1.500	0.372	0.545	
0.5313	34000.82	3.5200	3.5200	-1.6029	26.34	0.36	-1.500			
0.5361	34311.27	3.5170	3.5170	-1.6077	26.35	0.37	-1.500			
0.5409	34618.98	3.5140	3.5140	-1.6167	26.36	0.38	-1.500			
0.5458	34931.05	3.5110	3.5111	-1.6247	26.37	0.39	-1.500			
0.5507	35242.91	3.5080	3.5079	-1.6358	26.37	0.39	-1.500			
0.5556	35556.73	3.5050	3.5050	-1.6414	26.38	0.40	-1.500			
0.5606	35875.79	3.5020	3.5019	-1.6464	26.39	0.41	-1.500			
0.5655	36193.90	3.4990	3.4990	-1.6505	26.40	0.42	-1.500			
0.5705	36509.93	3.4960	3.4960	-1.6529	26.41	0.43	-1.500			
0.5754	36827.21	3.4930	3.4931	-1.6506	26.43	0.45	-1.500			
0.5804	37144.63	3.4900	3.4899	-1.6553	26.44	0.46	-1.500			
0.5853	37461.20	3.4870	3.4870	-1.6562	26.45	0.47	-1.500			
0.5903	37781.15	3.4840	3.4840	-1.6593	26.46	0.48	-1.500			
0.5954	38105.89	3.4810	3.4809	-1.6631	26.47	0.49	-1.500			
0.6004	38424.05	3.4780	3.4780	-1.6406	26.49	0.51	-1.500			
0.6053	38736.15	3.4750	3.4750	-1.6233	26.50	0.52	-1.500			
0.6101	39046.93	3.4720	3.4720	-1.6053	26.51	0.53	-1.500			
0.6148	39348.62	3.4690	3.4690	-1.5870	26.53	0.55	-1.500			
0.6196	39654.07	3.4660	3.4660	-1.5865	26.54	0.56	-1.500			
0.6243	39957.78	3.4630	3.4630	-1.5684	26.55	0.57	-1.500			
0.6291	40260.19	3.4600	3.4600	-1.5499	26.57	0.59	-1.500			
0.6337	40558.20	3.4570	3.4571	-1.5369	26.58	0.60	-1.500			
0.6383	40850.41	3.4540	3.4541	-1.5130	26.60	0.62	-1.500			
0.6428	41139.22	3.4510	3.4509	-1.4915	26.61	0.63	-1.500			
0.6472	41421.37	3.4480	3.4480	-1.4698	26.63	0.65	-1.500			
0.6516	41700.13	3.4450	3.4450	-1.4476	26.64	0.66	-1.500			
0.6559	41977.88	3.4420	3.4420	-1.4338	26.66	0.68	-1.500			
0.6602	42253.21	3.4390	3.4390	-1.4191	26.67	0.69	-1.500			
0.6644	42522.98	3.4360	3.4360	-1.3922	26.69	0.71	-1.500			
0.6686	42788.41	3.4330	3.4330	-1.3774	26.70	0.72	-1.500			
0.6727	43050.87	3.4300	3.4301	-1.3603	26.72	0.74	-1.500			
0.6767	43309.36	3.4270	3.4269	-1.3406	26.74	0.76	-1.500			
0.6807	43565.54	3.4240	3.4240	-1.3275	26.76	0.78	-1.500			
0.6847	43819.22	3.4210	3.4210	-1.3068	26.78	0.80	-1.500			
0.6886	44069.38	3.4180	3.4180	-1.2932	26.80	0.82	-1.500			
0.6925	44319.32	3.4150	3.4150	-1.2745	26.82	0.84	-1.500			
0.6963	44560.70	3.4120	3.4119	-1.2482	26.83	0.85	-1.500			
0.7000	44799.57	3.4090	3.4091	-1.2213	26.85	0.87	-1.500			
0.7036	45030.92	3.4060	3.4060	-1.1967	26.87	0.89	-1.500			
0.7071	45257.31	3.4030	3.4030	-1.1712	26.88	0.90	-1.500			
0.7106	45480.40	3.4000	3.4000	-1.1365	26.90	0.92	-1.500			
0.7140	45698.32	3.3970	3.3969	-1.1134	26.92	0.94	-1.500			
0.7174	45910.76	3.3940	3.3941	-1.0843	26.94	0.96	-1.500			
0.7206	46115.71	3.3910	3.3909	-1.0474	26.95	0.97	-1.500			
0.7236	46313.48	3.3880	3.3881	-1.0185	26.96	0.98	-1.500			
0.7266	46504.16	3.3850	3.3850	-0.9826	26.98	1.00	-1.500			
0.7295	46688.41	3.3820	3.3820	-0.9480	26.99	1.01	-1.500			
0.7323	46868.82	3.3790	3.3790	-0.9249	27.01	1.03	-1.500			
0.7351	47043.71	3.3760	3.3761	-0.8994	27.02	1.04	-1.500			
0.7377	47214.76	3.3730	3.3729	-0.8677	27.03	1.05	-1.500			
0.7403	47379.44	3.3700	3.3699	-0.8418	27.05	1.07	-1.500			
0.7428	47536.76	3.3670	3.3673	-0.8135	27.06	1.08	-1.500			
0.7452	47690.83	3.3640	3.3640	-0.7884	27.07	1.09	-1.500			
0.7475	47838.95	3.3610	3.3609	-0.7622	27.09	1.11	-1.500			
0.7497	47979.75	3.3580	3.3579	-0.7328	27.10	1.12	-1.500			
0.7519	48120.40	3.3550	3.3550	-0.7147	27.11	1.13	-1.500			
0.7540	48253.67	3.3520	3.3520	-0.6953	27.12	1.14	-1.500			
0.7560	48384.91	3.3490	3.3490	-0.6734	27.13	1.15	-1.500			
0.7580	48511.69	3.3460	3.3461	-0.6574	27.14	1.16	-1.500			
0.7600	48637.23	3.3430	3.3430	-0.6456	27.15	1.17	-1.500			
0.7619	48759.56	3.3400	3.3401	-0.6300	27.16	1.18	-1.500			
0.7638	48880.05	3.3370	3.3369	-0.6167	27.16	1.18	-1.500			
0.7656	48997.54	3.3340	3.3340	-0.6017	27.17	1.19	-1.500			
0.7674	49110.59	3.3310	3.3310	-0.5821	27.18	1.20	-1.500			
0.7691	49221.64	3.3280	3.3280	-0.5685	27.19	1.21	-1.500			
0.7708	49328.47	3.3250	3.3250	-0.5487	27.20	1.22	-1.500			
0.7724	49431.75	3.3220	3.3220	-0.5335	27.21	1.23	-1.500			
0.7739	49532.53	3.3190	3.3191	-0.5190	27.21	1.23	-1.500			
0.7755	49630.07	3.3160	3.3160	-0.5056	27.22	1.24	-1.500			
0.7770	49725.67	3.3130	3.3130	-0.4937	27.23	1.25	-1.500			
0.7784	49819.14	3.3100	3.3100	-0.4820	27.24	1.26	-1.500			
0.7798	49910.36	3.3070	3.3070	-0.4722	27.25	1.27	-1.500			
0.7813	50001.32	3.3040	3.3040	-0.4624	27.26	1.28	-1.500			
0.7826	50088.77	3.3010	3.3010	-0.4504	27.27	1.29	-1.500			
0.7840	50174.15	3.2980	3.2979	-0.4393	27.27	1.29	-1.500			
0.7853	50256.89	3.2950	3.2950	-0.4295	27.28	1.30	-1.500			
0.7865	50337.83	3.2920	3.2919	-0.4192	27.29	1.31	-1.500			
0.7878	50417.37	3.2890	3.2890	-0.4106	27.30	1.32	-1.500			
0.7890	50495.70	3.2860	3.2859	-0.4010	27.30	1.32	-1.500			
0.7902	50572.47	3.2830	3.2831	-0.3923	27.31	1.33	-1.500			
0.7914	50646.84	3.2800	3.2801	-0.3836	27.32	1.34	-1.500			
0.7925	50719.70	3.2770	3.2769	-0.3752	27.33	1.35	-1.500			
0.7936	50790.59	3.2740	3.2740	-0.3674	27.33	1.35	-1.500			
0.7947	50860.03	3.2710	3.2709	-0.3585	27.34	1.36	-1.500			
0.7957	50927.87	3.2680	3.2682	-0.3515	27.34	1.36	-1.500			
0.7968	50995.20	3.2650	3.2649	-0.3453	27.35	1.37	-1.500			
0.7978	51060.63	3.2620	3.2620	-0.3378	27.36	1.38	-1.500			
0.7988	51124.72	3.2590	3.2589	-0.3291	27.36	1.38	-1.500			
0.7998	51186.90	3.2560	3.2561	-0.3239	27.37	1.39	-1.500			
0.8008	51248.81	3.2530	3.2531	-0.3169	27.38	1.40	-1.500			
0.8017	51309.42	3.2500	3.2499	-0.3112	27.39	1.41	-1.500			
0.8026	51368.19	3.2470	3.2470	-0.3051	27.39	1.41	-1.500			
0.8035	51425.85	3.2440	3.2441	-0.2992	27.40	1.42	-1.500			
0.8044	51482.75	3.2410	3.2410	-0.2938	27.40	1.42	-1.500			
0.8053	51538.98	3.2380	3.2379	-0.2893	27.41	1.43	-1.500			
0.8062	51593.64	3.2350	3.2350	-0.2829	27.42	1.44	-1.500			
0.8070	51647.68	3.2320	3.2320	-0.2798	27.42	1.44	-1.500			
0.8078	51700.77	3.2290	3.2290	-0.2749	27.43	1.45	-1.500			
0.8086	51752.98	3.2260	3.2260	-0.2703	27.44	1.46	-1.500			
0.8095	51804.81	3.2230	3.2230	-0.2659	27.44	1.46	-1.500			
0.8102	51855.62	3.2200	3.2200	-0.2610	27.45	1.47	-1.500			
0.8110	51905.26	3.2170	3.2170	-0.2555	27.45	1.47	-1.500			
0.8118	51953.76	3.2140	3.2140	-0.2524	27.46	1.48	-1.500			
0.8125	52001.43	3.2110	3.2110	-0.2471	27.46	1.48	-1.500			
0.8133	52048.34	3.2080	3.2080	-0.2442	27.47	1.49	-1.500			
0.8140	52095.00	3.2050	3.2051	-0.2397	27.48	1.50	-1.500			
0.8147	52140.56	3.2020	3.2021	-0.2381	27.48	1.50	-1.500			
0.8154	52185.90	3.1990	3.1991	-0.2359	27.49	1.51	-1.500			
0.8161	52231.15	3.1960	3.1959	-0.2332	27.50	1.52	-1.500			
0.8168	52275.30	3.1930	3.1931	-0.2299	27.50	1.52	-1.500			
0.8175	52319.75	3.1900	3.1901	-0.2287	27.51	1.53	-1.500			
0.8182	52363.25	3.1870	3.1871	-0.2257	27.51	1.53	-1.500			
0.8189	52406.57	3.1840	3.1839	-0.2242	27.52	1.54	-1.500			
0.8195	52449.06	3.1810	3.1810	-0.2198	27.53	1.55	-1.500			
0.8202	52491.03	3.1780	3.1780	-0.2174	27.53	1.55	-1.500			
0.8208	52532.61	3.1750	3.1750	-0.2155	27.54	1.56	-1.500			
0.8215	52574.10	3.1720	3.1721	-0.2126	27.54	1.56	-1.500			
0.8221	52614.48	3.1690	3.1689	-0.2095	27.55	1.57	-1.500			
0.8227	52654.46	3.1660	3.1660	-0.2064	27.56	1.58	-1.500			
0.8233	52693.83	3.1630	3.1630	-0.2033	27.56	1.58	-1.500			
0.8239	52732.41	3.1600	3.1600	-0.2003	27.57	1.59	-1.500			
0.8245	52770.56	3.1570	3.1571	-0.1985	27.57	1.59	-1.500			
0.8251	52807.78	3.1540	3.1540	-0.1959	27.58	1.60	-1.500			
0.8257	52845.32	3.1510	3.1511	-0.1951	27.59	1.61	-1.500			
0.8263	52882.83	3.1480	3.1480	-0.1935	27.59	1.61	-1.500			
0.8269	52919.76	3.1450	3.1450	-0.1919	27.60	1.62	-1.500			
0.8274	52956.70	3.1420	3.1421	-0.1911	27.61	1.63	-1.500			
0.8280	52993.23	3.1390	3.1389	-0.1894	27.61	1.63	-1.500			
0.8286	53029.61	3.1360	3.1360	-0.1877	27.62	1.64	-1.500			
0.8291	53065.53	3.1330	3.1330	-0.1851	27.62	1.64	-1.500			
0.8297	53100.55	3.1300	3.1301	-0.1831	27.63	1.65	-1.500			
0.8302	53135.55	3.1270	3.1270	-0.1815	27.64	1.66	-1.500			
0.8308	53170.46	3.1240	3.1240	-0.1798	27.64	1.66	-1.500			
0.8313	53204.66	3.1210	3.1209	-0.1774	27.65	1.67	-1.500			
0.8318	53238.31	3.1180	3.1180	-0.1758	27.65	1.67	-1.500			
0.8324	53271.94	3.1150	3.1151	-0.1745	27.66	1.68	-1.500			
0.8329	53305.19	3.1120	3.1120	-0.1740	27.67	1.69	-1.500			
0.8334	53338.75	3.1090	3.1089	-0.1726	27.67	1.69	-1.500			
0.8339	53371.61	3.1060	3.1058	-0.1709	27.68	1.70	-1.500			
0.8344	53404.32	3.1030	3.1032	-0.1699	27.68	1.70	-1.500			
0.8350	53437.08	3.1000	3.1000	-0.1691	27.69	1.71	-1.500			
0.8355	53469.41	3.0970	3.0969	-0.1680	27.70	1.72	-1.500			
0.8360	53501.58	3.0940	3.0939	-0.1660	27.70	1.72	-1.500			
0.8365	53533.30	3.0910	3.0910	-0.1644	27.71	1.73	-1.500			
0.8369	53564.62	3.0880	3.0879	-0.1630	27.71	1.73	-1.500			
0.8374	53595.94	3.0850	3.0851	-0.1623	27.72	1.74	-1.500			
0.8379	53626.94	3.0820	3.0819	-0.1604	27.73	1.75	-1.500			
0.8384	53657.59	3.0790	3.0790	-0.1589	27.73	1.75	-1.500			
0.8389	53687.73	3.0760	3.0760	-0.1582	27.74	1.76	-1.500			
0.8393	53717.87	3.0730	3.0731	-0.1574	27.74	1.76	-1.500			
0.8398	53748.21	3.0700	3.0700	-0.1572	27.75	1.77	-1.500			
0.8403	53778.40	3.0670	3.0669	-0.1556	27.75	1.77	-1.500			
0.8408	53808.03	3.0640	3.0640	-0.1549	27.76	1.78	-1.500			
0.8412	53837.68	3.0610	3.0611	-0.1540	27.77	1.79	-1.500			
0.8417	53867.39	3.0580	3.0580	-0.1534	27.77	1.79	-1.500			
0.8421	53896.73	3.0550	3.0549	-0.1521	27.78	1.80	-1.500			
0.8426	53925.66	3.0520	3.0521	-0.1506	27.78	1.80	-1.500			
0.8430	53954.37	3.0490	3.0490	-0.1498	27.79	1.81	-1.500			
0.8435	53983.05	3.0460	3.0461	-0.1490	27.80	1.82	-1.500			
0.8439	54011.79	3.0430	3.0429	-0.1477	27.80	1.82	-1.500			
0.8444	54039.74	3.0400	3.0400	-0.1464	27.81	1.83	-1.500			
0.8448	54067.74	3.0370	3.0370	-0.1457	27.81	1.83	-1.500			
0.8452	54095.66	3.0340	3.0340	-0.1451	27.82	1.84	-1.500			
0.8457	54123.53	3.0310	3.0309	-0.1442	27.83	1.85	-1.500			
0.8461	54151.20	3.0280	3.0280	-0.1431	27.83	1.85	-1.500			
0.8465	54178.58	3.0250	3.0250	-0.1417	27.84	1.86	-1.500			
0.8470	54205.67	3.0220	3.0221	-0.1405	27.84	1.86	-1.500			
0.8474	54232.57	3.0190	3.0191	-0.1405	27.85	1.87	-1.500			
0.8478	54259.28	3.0160	3.0159	-0.1392	27.85	1.87	-1.500			
0.8482	54285.90	3.0130	3.0130	-0.1384	27.86	1.88	-1.500			
0.8486	54312.43	3.0100	3.0100	-0.1379	27.86	1.88	-1.500			
0.8490	54338.92	3.0070	3.0071	-0.1375	27.87	1.89	-1.500			
0.8495	54365.39	3.0040	3.0040	-0.1361	27.88	1.90	-1.500			
0.8499	54391.28	3.0010	3.0010	-0.1312	27.88	1.90	-1.500			
