Ah_balance (normalized)	Ah_balance (mAh)	Voltage - fit (V)	Voltage -  interpolate (V)	dQ/dV (1/V)	Temperature (°C)	Temperature - diff (°C)	Current (C)	R_DC 0ms (mOhm)	R_DC 50ms (mOhm)	R_DC 50 ms PEC (mOhm)
0.1979	12663.48	3.9290	3.9287	-0.0930	25.76	-0.02	-1.500			
0.1982	12683.45	3.9260	3.9262	-0.1151	25.76	-0.02	-1.500			
0.1986	12707.29	3.9230	3.9230	-0.1375	25.76	-0.02	-1.500			
0.1990	12736.35	3.9200	3.9199	-0.1604	25.76	-0.02	-1.500			
0.1995	12769.36	3.9170	3.9170	-0.1827	25.76	-0.02	-1.500			
0.2001	12806.67	3.9140	3.9140	-0.2049	25.76	-0.02	-1.500			
0.2008	12848.01	3.9110	3.9111	-0.2279	25.76	-0.02	-1.500			
0.2015	12894.21	3.9080	3.9080	-0.2498	25.76	-0.02	-1.500			
0.2023	12944.14	3.9050	3.9050	-0.2720	25.76	-0.02	-1.500			
0.2031	12998.61	3.9020	3.9020	-0.2929	25.76	-0.02	-1.500			
0.2040	13056.88	3.8990	3.8990	-0.3142	25.77	-0.01	-1.500			
0.2050	13119.49	3.8960	3.8960	-0.3358	25.77	-0.01	-1.500			
0.2060	13185.89	3.8930	3.8930	-0.3570	25.77	-0.01	-1.500			
0.2071	13256.63	3.8900	3.8900	-0.3764	25.77	-0.01	-1.500			
0.2083	13331.44	3.8870	3.8870	-0.3946	25.77	-0.01	-1.500			
0.2095	13409.36	3.8840	3.8840	-0.4129	25.77	-0.01	-1.500			
0.2108	13490.40	3.8810	3.8810	-0.4318	25.77	-0.01	-1.500			
0.2121	13575.40	3.8780	3.8779	-0.4460	25.77	-0.01	-1.500			
0.2135	13662.50	3.8750	3.8751	-0.4608	25.77	-0.01	-1.500			
0.2149	13752.48	3.8720	3.8720	-0.4763	25.77	-0.01	-1.500			
0.2163	13845.68	3.8690	3.8690	-0.4907	25.78	-0.00	-1.500			
0.2178	13941.55	3.8660	3.8660	-0.5054	25.78	-0.00	-1.500			
0.2194	14039.97	3.8630	3.8631	-0.5150	25.78	-0.00	-1.500			
0.2209	14140.42	3.8600	3.8600	-0.5262	25.78	-0.00	-1.500			
0.2226	14243.30	3.8570	3.8570	-0.5372	25.78	0.00	-1.500			
0.2242	14347.35	3.8540	3.8540	-0.5447	25.78	0.00	-1.500			
0.2258	14452.44	3.8510	3.8510	-0.5527	25.78	0.00	-1.500			
0.2275	14559.99	3.8480	3.8480	-0.5590	25.78	0.00	-1.500			
0.2292	14668.06	3.8450	3.8450	-0.5651	25.79	0.01	-1.500			
0.2309	14777.49	3.8420	3.8420	-0.5715	25.79	0.01	-1.500			
0.2326	14887.31	3.8390	3.8390	-0.5766	25.79	0.01	-1.500			
0.2344	14998.55	3.8360	3.8360	-0.5814	25.79	0.01	-1.500			
0.2361	15110.65	3.8330	3.8330	-0.5872	25.79	0.01	-1.500			
0.2379	15223.88	3.8300	3.8300	-0.5920	25.79	0.01	-1.500			
0.2397	15338.80	3.8270	3.8270	-0.5978	25.79	0.01	-1.500			
0.2415	15454.09	3.8240	3.8240	-0.6002	25.80	0.02	-1.500			
0.2433	15570.17	3.8210	3.8210	-0.6023	25.80	0.02	-1.500			
0.2451	15685.89	3.8180	3.8180	-0.6048	25.80	0.02	-1.500			
0.2469	15802.58	3.8150	3.8150	-0.6065	25.80	0.02	-1.500			
0.2487	15918.74	3.8120	3.8119	-0.6077	25.80	0.02	-1.500			
0.2505	16034.67	3.8090	3.8090	-0.6114	25.81	0.03	-1.500			
0.2524	16152.53	3.8060	3.8060	-0.6130	25.81	0.03	-1.500			
0.2542	16270.48	3.8030	3.8030	-0.6172	25.81	0.03	-1.500			
0.2561	16390.19	3.8000	3.8000	-0.6193	25.82	0.04	-1.500			
0.2580	16509.09	3.7970	3.7970	-0.6206	25.82	0.04	-1.500			
0.2598	16628.74	3.7940	3.7940	-0.6232	25.83	0.05	-1.500			
0.2617	16748.03	3.7910	3.7910	-0.6250	25.83	0.05	-1.500			
0.2636	16868.10	3.7880	3.7880	-0.6253	25.83	0.05	-1.500			
0.2654	16988.68	3.7850	3.7850	-0.6307	25.84	0.06	-1.500			
0.2673	17109.79	3.7820	3.7820	-0.6308	25.84	0.06	-1.500			
0.2692	17231.28	3.7790	3.7791	-0.6349	25.84	0.06	-1.500			
0.2711	17352.92	3.7760	3.7759	-0.6376	25.85	0.07	-1.500			
0.2731	17475.58	3.7730	3.7730	-0.6410	25.85	0.07	-1.500			
0.2750	17598.47	3.7700	3.7700	-0.6443	25.86	0.08	-1.500			
0.2769	17722.59	3.7670	3.7670	-0.6509	25.86	0.08	-1.500			
0.2789	17848.23	3.7640	3.7640	-0.6553	25.87	0.09	-1.500			
0.2809	17976.07	3.7610	3.7609	-0.6590	25.87	0.09	-1.500			
0.2829	18103.53	3.7580	3.7580	-0.6584	25.88	0.10	-1.500			
0.2848	18229.61	3.7550	3.7551	-0.6617	25.88	0.10	-1.500			
0.2868	18355.78	3.7520	3.7521	-0.6657	25.88	0.10	-1.500			
0.2888	18483.15	3.7490	3.7490	-0.6707	25.89	0.11	-1.500			
0.2908	18610.87	3.7460	3.7459	-0.6764	25.89	0.11	-1.500			
0.2928	18742.21	3.7430	3.7430	-0.6851	25.90	0.12	-1.500			
0.2949	18876.15	3.7400	3.7400	-0.6932	25.90	0.12	-1.500			
0.2970	19010.23	3.7370	3.7371	-0.6956	25.91	0.13	-1.500			
0.2991	19143.51	3.7340	3.7340	-0.6983	25.91	0.13	-1.500			
0.3012	19277.90	3.7310	3.7309	-0.7045	25.92	0.14	-1.500			
0.3033	19412.12	3.7280	3.7280	-0.7093	25.92	0.14	-1.500			
0.3054	19548.52	3.7250	3.7249	-0.7195	25.93	0.15	-1.500			
0.3076	19688.63	3.7220	3.7220	-0.7275	25.93	0.15	-1.500			
0.3098	19829.63	3.7190	3.7190	-0.7334	25.94	0.16	-1.500			
0.3121	19971.32	3.7160	3.7160	-0.7432	25.94	0.16	-1.500			
0.3143	20114.44	3.7130	3.7130	-0.7486	25.94	0.16	-1.500			
0.3165	20259.03	3.7100	3.7100	-0.7517	25.95	0.17	-1.500			
0.3188	20404.02	3.7070	3.7070	-0.7561	25.95	0.17	-1.500			
0.3211	20549.11	3.7040	3.7040	-0.7604	25.96	0.18	-1.500			
0.3234	20696.11	3.7010	3.7011	-0.7661	25.96	0.18	-1.500			
0.3257	20843.19	3.6980	3.6979	-0.7725	25.97	0.19	-1.500			
0.3280	20990.43	3.6950	3.6950	-0.7815	25.97	0.19	-1.500			
0.3303	21141.18	3.6920	3.6920	-0.7925	25.98	0.20	-1.500			
0.3327	21295.00	3.6890	3.6890	-0.8033	25.98	0.20	-1.500			
0.3352	21450.81	3.6860	3.6860	-0.8143	25.99	0.21	-1.500			
0.3376	21609.29	3.6830	3.6830	-0.8196	25.99	0.21	-1.500			
0.3401	21767.22	3.6800	3.6800	-0.8320	26.00	0.22	-1.500			
0.3426	21927.38	3.6770	3.6770	-0.8413	26.00	0.22	-1.500			
0.3451	22089.24	3.6740	3.6740	-0.8488	26.01	0.23	-1.500			
0.3477	22254.19	3.6710	3.6711	-0.8577	26.01	0.23	-1.500			
0.3503	22420.76	3.6680	3.6681	-0.8654	26.01	0.23	-1.500			
0.3529	22586.90	3.6650	3.6650	-0.8733	26.02	0.24	-1.500			
0.3556	22756.11	3.6620	3.6620	-0.8818	26.02	0.24	-1.500			
0.3582	22923.83	3.6590	3.6590	-0.8906	26.03	0.25	-1.500			
0.3609	23095.99	3.6560	3.6560	-0.9009	26.03	0.25	-1.500			
0.3636	23270.43	3.6530	3.6530	-0.9142	26.04	0.26	-1.500			
0.3664	23447.74	3.6500	3.6500	-0.9245	26.04	0.26	-1.500			
0.3692	23627.62	3.6470	3.6470	-0.9320	26.05	0.27	-1.500			
0.3720	23807.41	3.6440	3.6441	-0.9344	26.05	0.27	-1.500			
0.3748	23986.54	3.6410	3.6410	-0.9425	26.05	0.27	-1.500			
0.3776	24166.09	3.6380	3.6380	-0.9545	26.06	0.28	-1.500			
0.3805	24349.20	3.6350	3.6350	-0.9675	26.06	0.28	-1.500			
0.3834	24535.22	3.6320	3.6319	-0.9844	26.06	0.28	-1.500			
0.3864	24727.81	3.6290	3.6290	-0.9982	26.07	0.29	-1.500			
0.3894	24922.04	3.6260	3.6260	-1.0115	26.07	0.29	-1.500			
0.3925	25119.37	3.6230	3.6230	-1.0232	26.07	0.29	-1.500			
0.3956	25315.27	3.6200	3.6200	-1.0321	26.08	0.30	-1.500			
0.3986	25512.48	3.6170	3.6170	-1.0401	26.08	0.30	-1.500			
0.4018	25714.17	3.6140	3.6140	-1.0512	26.09	0.31	-1.500			
0.4049	25916.40	3.6110	3.6110	-1.0603	26.09	0.31	-1.500			
0.4081	26120.56	3.6080	3.6081	-1.0757	26.09	0.31	-1.500			
0.4114	26327.21	3.6050	3.6050	-1.0928	26.10	0.32	-1.500			
0.4147	26539.81	3.6020	3.6020	-1.1070	26.10	0.32	-1.500			
0.4180	26754.18	3.5990	3.5990	-1.1189	26.10	0.32	-1.500			
0.4214	26970.54	3.5960	3.5960	-1.1351	26.11	0.33	-1.500			
0.4249	27190.53	3.5930	3.5931	-1.1500	26.11	0.33	-1.500			
0.4283	27412.63	3.5900	3.5900	-1.1614	26.12	0.34	-1.500			
0.4318	27635.00	3.5870	3.5869	-1.1751	26.12	0.34	-1.500			
0.4353	27860.27	3.5840	3.5840	-1.1934	26.13	0.35	-1.500			
0.4390	28093.46	3.5810	3.5810	-1.2121	26.13	0.35	-1.500			
0.4426	28328.19	3.5780	3.5780	-1.2239	26.13	0.35	-1.500			
0.4463	28565.42	3.5750	3.5750	-1.2362	26.14	0.36	-1.500			
0.4500	28803.18	3.5720	3.5721	-1.2547	26.14	0.36	-1.500			
0.4538	29044.58	3.5690	3.5690	-1.2715	26.15	0.37	-1.500			
0.4576	29287.43	3.5660	3.5659	-1.2961	26.15	0.37	-1.500			
0.4616	29539.85	3.5630	3.5630	-1.3108	26.15	0.37	-1.500			
0.4656	29797.25	3.5600	3.5600	-1.3311	26.15	0.37	-1.500			
0.4696	30053.65	3.5570	3.5570	-1.3484	26.16	0.38	-1.500			
0.4737	30314.92	3.5540	3.5540	-1.3670	26.16	0.38	-1.500			
0.4778	30576.54	3.5510	3.5510	-1.3850	26.17	0.39	-1.500			
0.4819	30843.27	3.5480	3.5480	-1.3994	26.18	0.40	-1.500			
0.4862	31113.76	3.5450	3.5450	-1.4146	26.18	0.40	-1.500			
0.4905	31390.87	3.5420	3.5420	-1.4411	26.19	0.41	-1.500			
0.4948	31669.27	3.5390	3.5390	-1.4596	26.20	0.42	-1.500			
0.4992	31948.90	3.5360	3.5360	-1.4716	26.20	0.42	-1.500			
0.5036	32232.39	3.5330	3.5330	-1.4897	26.22	0.44	-1.500			
0.5081	32521.23	3.5300	3.5300	-1.5081	26.23	0.45	-1.500			
0.5127	32814.92	3.5270	3.5270	-1.5291	26.24	0.46	-1.500			
0.5173	33109.01	3.5240	3.5240	-1.5455	26.25	0.47	-1.500			
0.5220	33406.86	3.5210	3.5211	-1.5615	26.26	0.48	-1.500	0.369	0.554	
0.5267	33708.66	3.5180	3.5180	-1.5723	26.27	0.49	-1.500			
0.5314	34012.12	3.5150	3.5150	-1.5912	26.27	0.49	-1.500			
0.5363	34321.66	3.5120	3.5120	-1.5942	26.28	0.50	-1.500			
0.5411	34629.21	3.5090	3.5089	-1.6014	26.29	0.51	-1.500			
0.5459	34938.14	3.5060	3.5061	-1.6087	26.30	0.52	-1.500			
0.5507	35247.29	3.5030	3.5030	-1.6085	26.31	0.53	-1.500			
0.5556	35556.68	3.5000	3.4999	-1.6167	26.33	0.55	-1.500			
0.5604	35867.44	3.4970	3.4970	-1.6231	26.34	0.56	-1.500			
0.5653	36177.89	3.4940	3.4940	-1.6207	26.36	0.58	-1.500			
0.5702	36495.04	3.4910	3.4910	-1.6360	26.37	0.59	-1.500			
0.5751	36807.12	3.4880	3.4878	-1.6287	26.39	0.61	-1.500			
0.5800	37119.00	3.4850	3.4850	-1.6297	26.40	0.62	-1.500			
0.5849	37433.99	3.4820	3.4820	-1.6250	26.41	0.63	-1.500			
0.5897	37743.23	3.4790	3.4790	-1.6116	26.42	0.64	-1.500			
0.5946	38057.08	3.4760	3.4760	-1.6065	26.43	0.65	-1.500			
0.5995	38364.89	3.4730	3.4730	-1.5960	26.45	0.67	-1.500			
0.6042	38669.62	3.4700	3.4700	-1.5781	26.46	0.68	-1.500			
0.6089	38970.44	3.4670	3.4670	-1.5666	26.48	0.70	-1.500			
0.6136	39269.97	3.4640	3.4640	-1.5500	26.49	0.71	-1.500			
0.6182	39566.12	3.4610	3.4610	-1.5416	26.51	0.73	-1.500			
0.6228	39862.05	3.4580	3.4580	-1.5285	26.52	0.74	-1.500			
0.6274	40154.44	3.4550	3.4550	-1.5126	26.54	0.76	-1.500			
0.6319	40442.52	3.4520	3.4520	-1.4992	26.55	0.77	-1.500			
0.6364	40731.64	3.4490	3.4490	-1.4773	26.57	0.79	-1.500			
0.6408	41013.94	3.4460	3.4460	-1.4509	26.58	0.80	-1.500			
0.6451	41289.11	3.4430	3.4430	-1.4369	26.59	0.81	-1.500			
0.6494	41561.57	3.4400	3.4400	-1.4107	26.61	0.83	-1.500			
0.6536	41829.43	3.4370	3.4369	-1.4029	26.63	0.85	-1.500			
0.6578	42096.02	3.4340	3.4340	-1.3884	26.65	0.87	-1.500			
0.6619	42363.85	3.4310	3.4310	-1.3658	26.67	0.89	-1.500			
0.6661	42627.92	3.4280	3.4279	-1.3552	26.69	0.91	-1.500			
0.6701	42886.63	3.4250	3.4251	-1.3338	26.70	0.92	-1.500			
0.6740	43139.03	3.4220	3.4219	-1.3085	26.72	0.94	-1.500			
0.6779	43388.28	3.4190	3.4189	-1.2891	26.74	0.96	-1.500			
0.6817	43630.03	3.4160	3.4160	-1.2637	26.76	0.98	-1.500			
0.6855	43874.50	3.4130	3.4130	-1.2481	26.77	0.99	-1.500			
0.6893	44115.28	3.4100	3.4100	-1.2269	26.79	1.01	-1.500			
0.6929	44347.39	3.4070	3.4071	-1.2006	26.81	1.03	-1.500			
0.6965	44576.65	3.4040	3.4041	-1.1740	26.83	1.05	-1.500			
0.7000	44798.10	3.4010	3.4009	-1.1451	26.85	1.07	-1.500			
0.7034	45015.07	3.3980	3.3980	-1.1161	26.87	1.09	-1.500			
0.7067	45227.02	3.3950	3.3951	-1.0862	26.88	1.10	-1.500			
0.7099	45432.02	3.3920	3.3920	-1.0572	26.90	1.12	-1.500			
0.7130	45633.99	3.3890	3.3890	-1.0298	26.92	1.14	-1.500			
0.7161	45828.59	3.3860	3.3860	-0.9947	26.94	1.16	-1.500			
0.7190	46017.06	3.3830	3.3830	-0.9634	26.95	1.17	-1.500			
0.7218	46198.21	3.3800	3.3801	-0.9307	26.96	1.18	-1.500			
0.7246	46372.57	3.3770	3.3770	-0.9050	26.97	1.19	-1.500			
0.7272	46543.49	3.3740	3.3740	-0.8774	26.99	1.21	-1.500			
0.7298	46707.12	3.3710	3.3710	-0.8518	27.00	1.22	-1.500			
0.7323	46869.19	3.3680	3.3680	-0.8302	27.02	1.24	-1.500			
0.7348	47028.20	3.3650	3.3650	-0.8081	27.03	1.25	-1.500			
0.7372	47181.00	3.3620	3.3620	-0.7821	27.05	1.27	-1.500			
0.7395	47328.85	3.3590	3.3592	-0.7561	27.06	1.28	-1.500			
0.7417	47470.31	3.3560	3.3560	-0.7334	27.07	1.29	-1.500			
0.7439	47608.60	3.3530	3.3530	-0.7112	27.08	1.30	-1.500			
0.7460	47742.23	3.3500	3.3499	-0.6895	27.09	1.31	-1.500			
0.7480	47872.19	3.3470	3.3471	-0.6736	27.10	1.32	-1.500			
0.7500	47999.96	3.3440	3.3440	-0.6563	27.11	1.33	-1.500			
0.7519	48124.60	3.3410	3.3410	-0.6401	27.12	1.34	-1.500			
0.7538	48245.72	3.3380	3.3379	-0.6216	27.13	1.35	-1.500			
0.7557	48363.50	3.3350	3.3351	-0.6062	27.15	1.37	-1.500			
0.7575	48479.29	3.3320	3.3319	-0.5909	27.16	1.38	-1.500			
0.7592	48590.78	3.3290	3.3290	-0.5730	27.17	1.39	-1.500			
0.7609	48697.39	3.3260	3.3260	-0.5577	27.18	1.40	-1.500			
0.7626	48803.68	3.3230	3.3230	-0.5456	27.19	1.41	-1.500			
0.7642	48906.49	3.3200	3.3199	-0.5332	27.20	1.42	-1.500			
0.7657	49007.80	3.3170	3.3170	-0.5221	27.21	1.43	-1.500			
0.7673	49108.41	3.3140	3.3140	-0.5101	27.22	1.44	-1.500			
0.7688	49205.52	3.3110	3.3109	-0.4983	27.22	1.44	-1.500			
0.7703	49299.91	3.3080	3.3080	-0.4855	27.23	1.45	-1.500			
0.7717	49390.42	3.3050	3.3051	-0.4716	27.24	1.46	-1.500			
0.7731	49480.75	3.3020	3.3018	-0.4602	27.25	1.47	-1.500			
0.7745	49567.59	3.2990	3.2990	-0.4470	27.25	1.47	-1.500			
0.7758	49652.04	3.2960	3.2959	-0.4377	27.26	1.48	-1.500			
0.7771	49734.99	3.2930	3.2931	-0.4295	27.27	1.49	-1.500			
0.7784	49816.28	3.2900	3.2898	-0.4186	27.28	1.50	-1.500			
0.7796	49895.51	3.2870	3.2870	-0.4106	27.29	1.51	-1.500			
0.7808	49973.63	3.2840	3.2840	-0.4013	27.30	1.52	-1.500			
0.7820	50050.56	3.2810	3.2810	-0.3940	27.30	1.52	-1.500			
0.7832	50125.72	3.2780	3.2779	-0.3844	27.31	1.53	-1.500			
0.7843	50198.00	3.2750	3.2750	-0.3755	27.32	1.54	-1.500			
0.7855	50269.49	3.2720	3.2720	-0.3666	27.33	1.55	-1.500			
0.7866	50339.23	3.2690	3.2690	-0.3583	27.33	1.55	-1.500			
0.7876	50406.73	3.2660	3.2661	-0.3500	27.34	1.56	-1.500			
0.7886	50473.39	3.2630	3.2629	-0.3417	27.35	1.57	-1.500			
0.7896	50537.47	3.2600	3.2601	-0.3356	27.35	1.57	-1.500			
0.7906	50600.97	3.2570	3.2570	-0.3290	27.36	1.58	-1.500			
0.7916	50663.51	3.2540	3.2541	-0.3237	27.37	1.59	-1.500			
0.7926	50725.53	3.2510	3.2509	-0.3190	27.37	1.59	-1.500			
0.7935	50786.33	3.2480	3.2481	-0.3122	27.38	1.60	-1.500			
0.7945	50845.70	3.2450	3.2450	-0.3059	27.38	1.60	-1.500			
0.7954	50904.16	3.2420	3.2421	-0.2998	27.39	1.61	-1.500			
0.7963	50960.19	3.2390	3.2390	-0.2929	27.39	1.61	-1.500			
0.7971	51015.75	3.2360	3.2361	-0.2877	27.40	1.62	-1.500			
0.7980	51070.11	3.2330	3.2330	-0.2835	27.41	1.63	-1.500			
0.7988	51124.01	3.2300	3.2300	-0.2790	27.42	1.64	-1.500			
0.7997	51177.66	3.2270	3.2270	-0.2758	27.42	1.64	-1.500			
0.8005	51230.14	3.2240	3.2239	-0.2706	27.43	1.65	-1.500			
0.8013	51281.96	3.2210	3.2210	-0.2664	27.44	1.66	-1.500			
0.8021	51332.45	3.2180	3.2181	-0.2617	27.45	1.67	-1.500			
0.8028	51382.33	3.2150	3.2150	-0.2572	27.45	1.67	-1.500			
0.8036	51431.25	3.2120	3.2119	-0.2524	27.46	1.68	-1.500			
0.8044	51478.77	3.2090	3.2090	-0.2494	27.47	1.69	-1.500			
0.8051	51525.94	3.2060	3.2061	-0.2458	27.48	1.70	-1.500			
0.8058	51572.91	3.2030	3.2030	-0.2436	27.48	1.70	-1.500			
0.8066	51619.56	3.2000	3.1998	-0.2407	27.49	1.71	-1.500			
0.8073	51665.69	3.1970	3.1970	-0.2370	27.50	1.72	-1.500			
0.8080	51711.04	3.1940	3.1940	-0.2341	27.50	1.72	-1.500			
0.8087	51755.65	3.1910	3.1911	-0.2305	27.51	1.73	-1.500			
0.8094	51799.86	3.1880	3.1880	-0.2273	27.52	1.74	-1.500			
0.8100	51842.57	3.1850	3.1849	-0.2236	27.52	1.74	-1.500			
0.8107	51885.13	3.1820	3.1820	-0.2204	27.53	1.75	-1.500			
0.8114	51927.20	3.1790	3.1791	-0.2178	27.54	1.76	-1.500			
0.8120	51968.70	3.1760	3.1760	-0.2156	27.54	1.76	-1.500			
0.8127	52009.95	3.1730	3.1730	-0.2137	27.55	1.77	-1.500			
0.8133	52050.68	3.1700	3.1699	-0.2110	27.55	1.77	-1.500			
0.8139	52090.98	3.1670	3.1670	-0.2088	27.56	1.78	-1.500			
0.8145	52131.01	3.1640	3.1640	-0.2059	27.57	1.79	-1.500			
0.8152	52170.15	3.1610	3.1610	-0.2038	27.57	1.79	-1.500			
0.8158	52209.14	3.1580	3.1580	-0.2017	27.58	1.80	-1.500			
0.8164	52247.62	3.1550	3.1549	-0.1991	27.58	1.80	-1.500			
0.8170	52285.47	3.1520	3.1520	-0.1966	27.59	1.81	-1.500			
0.8175	52322.82	3.1490	3.1491	-0.1949	27.60	1.82	-1.500			
0.8181	52359.98	3.1460	3.1461	-0.1935	27.60	1.82	-1.500			
0.8187	52397.12	3.1430	3.1429	-0.1918	27.61	1.83	-1.500			
0.8193	52433.91	3.1400	3.1400	-0.1903	27.61	1.83	-1.500			
0.8198	52470.08	3.1370	3.1370	-0.1885	27.62	1.84	-1.500			
0.8204	52506.42	3.1340	3.1340	-0.1866	27.63	1.85	-1.500			
0.8210	52541.92	3.1310	3.1311	-0.1854	27.64	1.86	-1.500			
0.8215	52577.33	3.1280	3.1280	-0.1835	27.64	1.86	-1.500			
0.8221	52612.27	3.1250	3.1250	-0.1813	27.65	1.87	-1.500			
0.8226	52646.79	3.1220	3.1220	-0.1795	27.66	1.88	-1.500			
0.8231	52681.17	3.1190	3.1190	-0.1783	27.66	1.88	-1.500			
0.8237	52715.27	3.1160	3.1161	-0.1768	27.67	1.89	-1.500			
0.8242	52749.01	3.1130	3.1130	-0.1751	27.68	1.90	-1.500			
0.8247	52782.64	3.1100	3.1100	-0.1739	27.68	1.90	-1.500			
0.8252	52815.52	3.1070	3.1071	-0.1717	27.69	1.91	-1.500			
0.8258	52848.40	3.1040	3.1040	-0.1708	27.69	1.91	-1.500			
0.8263	52881.21	3.1010	3.1010	-0.1700	27.70	1.92	-1.500			
0.8268	52913.63	3.0980	3.0981	-0.1687	27.71	1.93	-1.500			
0.8273	52946.12	3.0950	3.0949	-0.1673	27.71	1.93	-1.500			
0.8278	52978.10	3.0920	3.0920	-0.1658	27.72	1.94	-1.500			
0.8283	53009.86	3.0890	3.0890	-0.1650	27.73	1.95	-1.500			
0.8288	53041.40	3.0860	3.0861	-0.1637	27.73	1.95	-1.500			
0.8293	53072.60	3.0830	3.0829	-0.1622	27.74	1.96	-1.500			
0.8297	53103.65	3.0800	3.0800	-0.1610	27.75	1.97	-1.500			
0.8302	53134.44	3.0770	3.0770	-0.1595	27.75	1.97	-1.500			
0.8307	53164.94	3.0740	3.0740	-0.1584	27.76	1.98	-1.500			
0.8312	53195.43	3.0710	3.0710	-0.1575	27.76	1.98	-1.500			
0.8316	53225.38	3.0680	3.0680	-0.1566	27.77	1.99	-1.500			
0.8321	53255.12	3.0650	3.0650	-0.1552	27.78	2.00	-1.500			
0.8326	53284.90	3.0620	3.0620	-0.1543	27.78	2.00	-1.500			
0.8330	53314.45	3.0590	3.0590	-0.1535	27.79	2.01	-1.500			
0.8335	53343.89	3.0560	3.0560	-0.1527	27.79	2.01	-1.500			
0.8340	53373.21	3.0530	3.0530	-0.1519	27.80	2.02	-1.500			
0.8344	53402.23	3.0500	3.0500	-0.1508	27.80	2.02	-1.500			
0.8349	53431.08	3.0470	3.0470	-0.1498	27.81	2.03	-1.500			
0.8353	53459.79	3.0440	3.0440	-0.1479	27.82	2.04	-1.500			
0.8358	53488.15	3.0410	3.0410	-0.1469	27.82	2.04	-1.500			
0.8362	53515.98	3.0380	3.0381	-0.1460	27.83	2.05	-1.500			
0.8366	53543.92	3.0350	3.0350	-0.1451	27.83	2.05	-1.500			
0.8371	53571.35	3.0320	3.0320	-0.1452	27.84	2.06	-1.500			
0.8375	53599.30	3.0290	3.0289	-0.1440	27.84	2.06	-1.500			
0.8379	53627.08	3.0260	3.0260	-0.1435	27.85	2.07	-1.500			
0.8384	53654.56	3.0230	3.0229	-0.1428	27.85	2.07	-1.500			
0.8388	53682.37	3.0200	3.0201	-0.1418	27.86	2.08	-1.500			
0.8392	53709.20	3.0170	3.0170	-0.1412	27.86	2.08	-1.500			
0.8396	53736.12	3.0140	3.0139	-0.1394	27.87	2.09	-1.500			
0.8400	53762.80	3.0110	3.0111	-0.1385	27.88	2.10	-1.500			
0.8405	53788.98	3.0080	3.0079	-0.1380	27.88	2.10	-1.500			
0.8409	53815.74	3.0050	3.0050	-0.1367	27.89	2.11	-1.500			
0.8413	53841.83	3.0020	3.0021	-0.1345	27.89	2.11	-1.500			
