Ah_balance (normalized)	Ah_balance (mAh)	Voltage - fit (V)	Voltage -  interpolate (V)	dQ/dV (1/V)	Temperature (°C)	Temperature - diff (°C)	Current (C)	R_DC 0ms (mOhm)	R_DC 50ms (mOhm)	R_DC 50 ms PEC (mOhm)
0.1943	12434.58	3.9290	3.9289	-0.0822	25.81	-0.00	-1.500			
0.1946	12452.96	3.9260	3.9259	-0.1093	25.81	-0.00	-1.500			
0.1949	12476.69	3.9230	3.9228	-0.1363	25.81	-0.00	-1.500			
0.1954	12505.90	3.9200	3.9200	-0.1614	25.81	-0.00	-1.500			
0.1959	12539.29	3.9170	3.9170	-0.1862	25.81	-0.00	-1.500			
0.1965	12577.62	3.9140	3.9140	-0.2091	25.81	-0.00	-1.500			
0.1972	12621.18	3.9110	3.9110	-0.2305	25.81	-0.00	-1.500			
0.1979	12667.13	3.9080	3.9080	-0.2532	25.81	-0.00	-1.500			
0.1987	12717.81	3.9050	3.9052	-0.2751	25.81	-0.00	-1.500			
0.1996	12772.78	3.9020	3.9020	-0.2968	25.81	0.00	-1.500			
0.2005	12831.72	3.8990	3.8989	-0.3182	25.81	0.00	-1.500			
0.2015	12895.21	3.8960	3.8961	-0.3392	25.81	0.00	-1.500			
0.2025	12962.76	3.8930	3.8930	-0.3609	25.81	0.00	-1.500			
0.2037	13034.17	3.8900	3.8900	-0.3811	25.81	0.00	-1.500			
0.2048	13108.69	3.8870	3.8870	-0.3995	25.81	0.00	-1.500			
0.2061	13187.81	3.8840	3.8840	-0.4197	25.81	0.00	-1.500			
0.2074	13270.76	3.8810	3.8810	-0.4380	25.81	0.00	-1.500			
0.2087	13356.88	3.8780	3.8780	-0.4546	25.81	0.00	-1.500			
0.2101	13446.51	3.8750	3.8750	-0.4712	25.81	0.00	-1.500			
0.2115	13538.38	3.8720	3.8720	-0.4847	25.82	0.01	-1.500			
0.2130	13633.13	3.8690	3.8690	-0.4973	25.82	0.01	-1.500			
0.2145	13730.09	3.8660	3.8660	-0.5078	25.82	0.01	-1.500			
0.2161	13828.81	3.8630	3.8630	-0.5185	25.82	0.01	-1.500			
0.2176	13928.94	3.8600	3.8600	-0.5295	25.82	0.01	-1.500			
0.2192	14031.24	3.8570	3.8570	-0.5422	25.82	0.01	-1.500			
0.2209	14137.36	3.8540	3.8539	-0.5502	25.82	0.01	-1.500			
0.2226	14244.41	3.8510	3.8510	-0.5576	25.82	0.01	-1.500			
0.2243	14353.02	3.8480	3.8481	-0.5656	25.82	0.01	-1.500			
0.2260	14462.14	3.8450	3.8451	-0.5731	25.82	0.01	-1.500			
0.2277	14572.41	3.8420	3.8419	-0.5800	25.83	0.02	-1.500			
0.2294	14684.38	3.8390	3.8390	-0.5839	25.83	0.02	-1.500			
0.2312	14796.45	3.8360	3.8360	-0.5869	25.83	0.02	-1.500			
0.2330	14910.54	3.8330	3.8330	-0.5933	25.83	0.02	-1.500			
0.2348	15025.78	3.8300	3.8301	-0.5972	25.84	0.03	-1.500			
0.2366	15140.13	3.8270	3.8269	-0.6004	25.84	0.03	-1.500			
0.2384	15255.47	3.8240	3.8240	-0.6035	25.84	0.03	-1.500			
0.2402	15372.08	3.8210	3.8210	-0.6083	25.85	0.04	-1.500			
0.2420	15490.60	3.8180	3.8179	-0.6105	25.85	0.04	-1.500			
0.2439	15607.81	3.8150	3.8151	-0.6108	25.85	0.04	-1.500			
0.2457	15724.69	3.8120	3.8120	-0.6122	25.86	0.05	-1.500			
0.2475	15842.04	3.8090	3.8090	-0.6147	25.86	0.05	-1.500			
0.2494	15959.83	3.8060	3.8060	-0.6154	25.86	0.05	-1.500			
0.2512	16078.22	3.8030	3.8030	-0.6182	25.87	0.06	-1.500			
0.2531	16197.36	3.8000	3.8000	-0.6210	25.87	0.06	-1.500			
0.2550	16317.10	3.7970	3.7971	-0.6253	25.87	0.06	-1.500			
0.2568	16437.48	3.7940	3.7940	-0.6273	25.88	0.07	-1.500			
0.2587	16558.51	3.7910	3.7909	-0.6280	25.88	0.07	-1.500			
0.2606	16679.02	3.7880	3.7881	-0.6307	25.89	0.08	-1.500			
0.2625	16800.66	3.7850	3.7851	-0.6335	25.89	0.08	-1.500			
0.2644	16922.74	3.7820	3.7819	-0.6359	25.90	0.09	-1.500			
0.2663	17044.75	3.7790	3.7790	-0.6386	25.90	0.09	-1.500			
0.2682	17166.82	3.7760	3.7760	-0.6416	25.91	0.10	-1.500			
0.2702	17290.87	3.7730	3.7730	-0.6444	25.91	0.10	-1.500			
0.2721	17415.95	3.7700	3.7700	-0.6478	25.92	0.11	-1.500			
0.2741	17539.55	3.7670	3.7671	-0.6510	25.92	0.11	-1.500			
0.2760	17664.86	3.7640	3.7640	-0.6551	25.93	0.12	-1.500			
0.2780	17791.07	3.7610	3.7610	-0.6591	25.93	0.12	-1.500			
0.2800	17917.74	3.7580	3.7580	-0.6610	25.94	0.13	-1.500			
0.2820	18045.95	3.7550	3.7550	-0.6678	25.95	0.14	-1.500			
0.2840	18174.33	3.7520	3.7520	-0.6720	25.95	0.14	-1.500			
0.2860	18303.13	3.7490	3.7490	-0.6786	25.96	0.15	-1.500			
0.2880	18433.77	3.7460	3.7461	-0.6830	25.97	0.16	-1.500			
0.2901	18566.13	3.7430	3.7429	-0.6858	25.97	0.16	-1.500			
0.2922	18698.14	3.7400	3.7401	-0.6908	25.98	0.17	-1.500			
0.2942	18831.78	3.7370	3.7370	-0.6959	25.99	0.18	-1.500			
0.2963	18964.22	3.7340	3.7340	-0.7008	25.99	0.18	-1.500			
0.2984	19099.17	3.7310	3.7310	-0.7046	26.00	0.19	-1.500			
0.3005	19234.96	3.7280	3.7280	-0.7112	26.00	0.19	-1.500			
0.3027	19372.55	3.7250	3.7249	-0.7219	26.01	0.20	-1.500			
0.3049	19513.19	3.7220	3.7221	-0.7271	26.01	0.20	-1.500			
0.3071	19653.29	3.7190	3.7190	-0.7316	26.02	0.21	-1.500			
0.3093	19794.41	3.7160	3.7160	-0.7386	26.03	0.22	-1.500			
0.3115	19935.99	3.7130	3.7131	-0.7473	26.03	0.22	-1.500			
0.3137	20079.78	3.7100	3.7099	-0.7548	26.04	0.23	-1.500			
0.3160	20225.17	3.7070	3.7070	-0.7607	26.04	0.23	-1.500			
0.3183	20371.76	3.7040	3.7040	-0.7682	26.05	0.24	-1.500			
0.3206	20521.13	3.7010	3.7010	-0.7780	26.05	0.24	-1.500			
0.3230	20672.12	3.6980	3.6980	-0.7853	26.06	0.25	-1.500			
0.3254	20823.35	3.6950	3.6950	-0.7912	26.06	0.25	-1.500			
0.3277	20975.00	3.6920	3.6920	-0.7962	26.07	0.26	-1.500			
0.3302	21129.65	3.6890	3.6890	-0.8030	26.08	0.27	-1.500			
0.3325	21283.17	3.6860	3.6860	-0.8164	26.08	0.27	-1.500			
0.3350	21440.51	3.6830	3.6830	-0.8233	26.09	0.28	-1.500			
0.3375	21599.61	3.6800	3.6799	-0.8356	26.09	0.28	-1.500			
0.3400	21761.68	3.6770	3.6770	-0.8478	26.10	0.29	-1.500			
0.3426	21926.49	3.6740	3.6740	-0.8551	26.11	0.30	-1.500			
0.3452	22091.95	3.6710	3.6711	-0.8626	26.11	0.30	-1.500			
0.3478	22258.72	3.6680	3.6680	-0.8718	26.12	0.31	-1.500			
0.3504	22425.86	3.6650	3.6650	-0.8745	26.12	0.31	-1.500			
0.3530	22594.77	3.6620	3.6620	-0.8834	26.13	0.32	-1.500			
0.3557	22763.46	3.6590	3.6591	-0.8915	26.13	0.32	-1.500			
0.3584	22935.91	3.6560	3.6560	-0.8998	26.14	0.33	-1.500			
0.3611	23109.25	3.6530	3.6530	-0.9138	26.14	0.33	-1.500			
0.3638	23284.33	3.6500	3.6501	-0.9283	26.14	0.33	-1.500			
0.3666	23464.75	3.6470	3.6469	-0.9390	26.15	0.34	-1.500			
0.3695	23648.24	3.6440	3.6440	-0.9517	26.15	0.34	-1.500			
0.3724	23831.93	3.6410	3.6410	-0.9592	26.16	0.35	-1.500			
0.3753	24016.61	3.6380	3.6380	-0.9707	26.16	0.35	-1.500			
0.3782	24203.91	3.6350	3.6350	-0.9778	26.17	0.36	-1.500			
0.3811	24390.34	3.6320	3.6320	-0.9840	26.17	0.36	-1.500			
0.3841	24579.81	3.6290	3.6291	-0.9959	26.18	0.37	-1.500			
0.3871	24773.02	3.6260	3.6258	-1.0128	26.18	0.37	-1.500			
0.3901	24969.21	3.6230	3.6231	-1.0235	26.19	0.38	-1.500			
0.3932	25166.44	3.6200	3.6200	-1.0376	26.19	0.38	-1.500			
0.3964	25367.19	3.6170	3.6170	-1.0490	26.20	0.39	-1.500			
0.3995	25571.13	3.6140	3.6140	-1.0627	26.20	0.39	-1.500			
0.4027	25774.54	3.6110	3.6110	-1.0723	26.21	0.40	-1.500			
0.4060	25980.82	3.6080	3.6080	-1.0823	26.21	0.40	-1.500			
0.4092	26188.63	3.6050	3.6050	-1.0987	26.22	0.41	-1.500			
0.4125	26401.43	3.6020	3.6020	-1.1157	26.22	0.41	-1.500			
0.4159	26617.27	3.5990	3.5989	-1.1268	26.23	0.42	-1.500			
0.4193	26835.33	3.5960	3.5960	-1.1459	26.23	0.42	-1.500			
0.4228	27056.62	3.5930	3.5931	-1.1627	26.24	0.43	-1.500			
0.4263	27282.16	3.5900	3.5900	-1.1758	26.24	0.43	-1.500			
0.4298	27509.61	3.5870	3.5869	-1.1900	26.25	0.44	-1.500			
0.4334	27736.21	3.5840	3.5841	-1.2035	26.26	0.45	-1.500			
0.4370	27969.57	3.5810	3.5810	-1.2244	26.26	0.45	-1.500			
0.4408	28208.22	3.5780	3.5780	-1.2441	26.27	0.46	-1.500			
0.4445	28448.57	3.5750	3.5750	-1.2555	26.27	0.46	-1.500			
0.4483	28691.66	3.5720	3.5720	-1.2703	26.28	0.47	-1.500			
0.4521	28936.86	3.5690	3.5690	-1.2922	26.28	0.47	-1.500			
0.4560	29186.59	3.5660	3.5660	-1.3020	26.29	0.48	-1.500			
0.4599	29435.72	3.5630	3.5629	-1.3245	26.29	0.48	-1.500			
0.4639	29691.77	3.5600	3.5600	-1.3412	26.29	0.48	-1.500			
0.4680	29951.59	3.5570	3.5570	-1.3624	26.30	0.49	-1.500			
0.4721	30215.04	3.5540	3.5540	-1.3825	26.30	0.49	-1.500			
0.4763	30483.29	3.5510	3.5509	-1.4003	26.31	0.50	-1.500			
0.4805	30753.58	3.5480	3.5480	-1.4174	26.31	0.50	-1.500			
0.4848	31028.79	3.5450	3.5450	-1.4431	26.32	0.51	-1.500			
0.4891	31305.49	3.5420	3.5420	-1.4598	26.33	0.52	-1.500			
0.4936	31590.99	3.5390	3.5391	-1.4741	26.34	0.53	-1.500			
0.4980	31874.99	3.5360	3.5360	-1.4900	26.35	0.54	-1.500			
0.5026	32163.36	3.5330	3.5330	-1.5097	26.36	0.55	-1.500			
0.5071	32454.98	3.5300	3.5299	-1.4810	26.37	0.56	-1.500			
0.5114	32730.42	3.5270	3.5271	-1.5225	26.38	0.57	-1.500			
0.5159	33020.45	3.5240	3.5242	-1.5517	26.38	0.57	-1.500	0.373	0.548	
0.5207	33321.72	3.5210	3.5212	-1.5754	26.39	0.58	-1.500			
0.5255	33629.57	3.5180	3.5183	-1.6061	26.40	0.59	-1.500			
0.5304	33943.11	3.5150	3.5151	-1.6297	26.41	0.60	-1.500			
0.5356	34279.91	3.5120	3.5118	-1.6798	26.42	0.61	-1.500			
0.5403	34579.48	3.5090	3.5090	-1.6175	26.43	0.62	-1.500			
0.5452	34892.76	3.5060	3.5060	-1.6303	26.43	0.62	-1.500			
0.5501	35206.59	3.5030	3.5031	-1.6319	26.44	0.63	-1.500			
0.5550	35521.10	3.5000	3.4999	-1.6398	26.46	0.65	-1.500			
0.5599	35836.42	3.4970	3.4970	-1.6435	26.47	0.66	-1.500			
0.5649	36151.42	3.4940	3.4940	-1.6394	26.48	0.67	-1.500			
0.5699	36471.22	3.4910	3.4910	-1.6375	26.49	0.68	-1.500			
0.5748	36784.95	3.4880	3.4881	-1.6341	26.50	0.69	-1.500			
0.5796	37096.49	3.4850	3.4850	-1.6289	26.51	0.70	-1.500			
0.5845	37409.33	3.4820	3.4820	-1.6243	26.53	0.72	-1.500			
0.5893	37717.63	3.4790	3.4791	-1.6161	26.54	0.73	-1.500			
0.5942	38031.62	3.4760	3.4760	-1.6164	26.55	0.74	-1.500			
0.5991	38340.84	3.4730	3.4730	-1.6059	26.56	0.75	-1.500			
0.6039	38650.81	3.4700	3.4700	-1.5991	26.57	0.76	-1.500			
0.6087	38955.22	3.4670	3.4671	-1.5865	26.58	0.77	-1.500			
0.6135	39261.42	3.4640	3.4639	-1.5664	26.60	0.79	-1.500			
0.6182	39562.52	3.4610	3.4610	-1.5488	26.61	0.80	-1.500			
0.6228	39856.38	3.4580	3.4582	-1.5275	26.62	0.81	-1.500			
0.6273	40147.95	3.4550	3.4549	-1.5106	26.63	0.82	-1.500			
0.6318	40434.15	3.4520	3.4519	-1.4890	26.65	0.84	-1.500			
0.6362	40716.14	3.4490	3.4490	-1.4674	26.66	0.85	-1.500			
0.6406	40996.64	3.4460	3.4460	-1.4478	26.67	0.86	-1.500			
0.6450	41278.91	3.4430	3.4430	-1.4372	26.69	0.88	-1.500			
0.6492	41551.25	3.4400	3.4401	-1.4153	26.70	0.89	-1.500			
0.6534	41819.14	3.4370	3.4370	-1.3938	26.72	0.91	-1.500			
0.6576	42084.63	3.4340	3.4340	-1.3835	26.74	0.93	-1.500			
0.6617	42348.23	3.4310	3.4310	-1.3671	26.76	0.95	-1.500			
0.6658	42613.34	3.4280	3.4279	-1.3501	26.78	0.97	-1.500			
0.6698	42869.51	3.4250	3.4249	-1.3297	26.79	0.98	-1.500			
0.6738	43124.27	3.4220	3.4220	-1.3082	26.80	0.99	-1.500			
0.6777	43371.91	3.4190	3.4190	-1.2867	26.82	1.01	-1.500			
0.6815	43616.06	3.4160	3.4159	-1.2631	26.84	1.03	-1.500			
0.6852	43854.48	3.4130	3.4131	-1.2393	26.86	1.05	-1.500			
0.6890	44094.78	3.4100	3.4099	-1.2233	26.88	1.07	-1.500			
0.6926	44328.20	3.4070	3.4070	-1.2002	26.89	1.08	-1.500			
0.6962	44556.08	3.4040	3.4040	-1.1671	26.91	1.10	-1.500			
0.6997	44778.88	3.4010	3.4010	-1.1385	26.92	1.11	-1.500			
0.7030	44994.32	3.3980	3.3980	-1.1024	26.94	1.13	-1.500			
0.7063	45203.25	3.3950	3.3950	-1.0735	26.96	1.15	-1.500			
0.7095	45405.31	3.3920	3.3920	-1.0418	26.97	1.16	-1.500			
0.7125	45601.66	3.3890	3.3890	-1.0170	26.99	1.18	-1.500			
0.7155	45794.05	3.3860	3.3860	-0.9862	27.00	1.19	-1.500			
0.7185	45981.53	3.3830	3.3830	-0.9618	27.01	1.20	-1.500			
0.7213	46163.59	3.3800	3.3800	-0.9313	27.02	1.21	-1.500			
0.7241	46340.82	3.3770	3.3770	-0.9007	27.03	1.22	-1.500			
0.7267	46509.67	3.3740	3.3741	-0.8705	27.05	1.24	-1.500			
0.7293	46672.99	3.3710	3.3710	-0.8436	27.06	1.25	-1.500			
0.7317	46831.32	3.3680	3.3679	-0.8180	27.08	1.27	-1.500			
0.7342	46986.07	3.3650	3.3650	-0.7962	27.09	1.28	-1.500			
0.7365	47135.76	3.3620	3.3620	-0.7727	27.10	1.29	-1.500			
0.7388	47284.95	3.3590	3.3590	-0.7517	27.11	1.30	-1.500			
0.7410	47426.71	3.3560	3.3560	-0.7293	27.13	1.32	-1.500			
0.7432	47562.19	3.3530	3.3530	-0.7088	27.14	1.33	-1.500			
0.7453	47696.25	3.3500	3.3500	-0.6895	27.15	1.34	-1.500			
0.7473	47826.17	3.3470	3.3468	-0.6710	27.15	1.34	-1.500			
0.7493	47953.61	3.3440	3.3440	-0.6526	27.16	1.35	-1.500			
0.7512	48078.15	3.3410	3.3409	-0.6346	27.17	1.36	-1.500			
0.7531	48198.36	3.3380	3.3380	-0.6178	27.18	1.37	-1.500			
0.7549	48314.09	3.3350	3.3350	-0.5987	27.19	1.38	-1.500			
0.7567	48426.85	3.3320	3.3320	-0.5845	27.20	1.39	-1.500			
0.7584	48538.40	3.3290	3.3290	-0.5736	27.21	1.40	-1.500			
0.7601	48646.95	3.3260	3.3260	-0.5588	27.22	1.41	-1.500			
0.7618	48753.52	3.3230	3.3231	-0.5451	27.23	1.42	-1.500			
0.7634	48857.39	3.3200	3.3200	-0.5320	27.24	1.43	-1.500			
0.7650	48957.66	3.3170	3.3170	-0.5166	27.25	1.44	-1.500			
0.7665	49055.13	3.3140	3.3139	-0.5020	27.26	1.45	-1.500			
0.7680	49150.00	3.3110	3.3111	-0.4890	27.26	1.45	-1.500			
0.7694	49241.83	3.3080	3.3080	-0.4792	27.27	1.46	-1.500			
0.7708	49333.09	3.3050	3.3050	-0.4699	27.28	1.47	-1.500			
0.7722	49422.10	3.3020	3.3019	-0.4583	27.28	1.47	-1.500			
0.7736	49509.26	3.2990	3.2990	-0.4463	27.29	1.48	-1.500			
0.7749	49593.98	3.2960	3.2961	-0.4372	27.30	1.49	-1.500			
0.7762	49677.06	3.2930	3.2928	-0.4262	27.31	1.50	-1.500			
0.7775	49757.35	3.2900	3.2901	-0.4168	27.32	1.51	-1.500			
0.7787	49836.00	3.2870	3.2871	-0.4082	27.33	1.52	-1.500			
0.7799	49914.17	3.2840	3.2840	-0.3988	27.33	1.52	-1.500			
0.7811	49990.23	3.2810	3.2810	-0.3901	27.34	1.53	-1.500			
0.7823	50064.24	3.2780	3.2781	-0.3807	27.35	1.54	-1.500			
0.7834	50135.59	3.2750	3.2749	-0.3717	27.36	1.55	-1.500			
0.7845	50206.61	3.2720	3.2720	-0.3625	27.37	1.56	-1.500			
0.7855	50274.95	3.2690	3.2691	-0.3524	27.37	1.56	-1.500			
0.7866	50340.93	3.2660	3.2660	-0.3477	27.38	1.57	-1.500			
0.7876	50407.45	3.2630	3.2628	-0.3422	27.39	1.58	-1.500			
0.7886	50472.36	3.2600	3.2599	-0.3334	27.39	1.58	-1.500			
0.7896	50536.00	3.2570	3.2571	-0.3259	27.40	1.59	-1.500			
0.7906	50597.69	3.2540	3.2542	-0.3194	27.41	1.60	-1.500			
0.7915	50659.03	3.2510	3.2509	-0.3132	27.41	1.60	-1.500			
0.7925	50717.95	3.2480	3.2480	-0.3058	27.42	1.61	-1.500			
0.7934	50775.13	3.2450	3.2450	-0.2993	27.42	1.61	-1.500			
0.7943	50832.45	3.2420	3.2421	-0.2956	27.43	1.62	-1.500			
0.7951	50889.01	3.2390	3.2390	-0.2919	27.43	1.62	-1.500			
0.7960	50944.48	3.2360	3.2360	-0.2879	27.44	1.63	-1.500			
0.7969	50999.32	3.2330	3.2331	-0.2810	27.44	1.63	-1.500			
0.7977	51053.11	3.2300	3.2299	-0.2769	27.44	1.63	-1.500			
0.7985	51105.65	3.2270	3.2271	-0.2712	27.45	1.64	-1.500			
0.7993	51156.77	3.2240	3.2240	-0.2670	27.46	1.65	-1.500			
0.8001	51207.57	3.2210	3.2210	-0.2626	27.46	1.65	-1.500			
0.8009	51257.19	3.2180	3.2180	-0.2587	27.47	1.66	-1.500			
0.8017	51306.61	3.2150	3.2151	-0.2556	27.48	1.67	-1.500			
0.8024	51356.44	3.2120	3.2119	-0.2524	27.49	1.68	-1.500			
0.8032	51404.05	3.2090	3.2089	-0.2475	27.49	1.68	-1.500			
0.8039	51451.10	3.2060	3.2061	-0.2437	27.50	1.69	-1.500			
0.8046	51496.78	3.2030	3.2031	-0.2399	27.51	1.70	-1.500			
0.8054	51542.63	3.2000	3.2000	-0.2377	27.51	1.70	-1.500			
0.8061	51588.16	3.1970	3.1969	-0.2334	27.52	1.71	-1.500			
0.8068	51632.29	3.1940	3.1940	-0.2307	27.53	1.72	-1.500			
0.8074	51676.64	3.1910	3.1911	-0.2276	27.53	1.72	-1.500			
0.8081	51720.40	3.1880	3.1881	-0.2250	27.54	1.73	-1.500			
0.8088	51763.09	3.1850	3.1849	-0.2211	27.55	1.74	-1.500			
0.8095	51804.97	3.1820	3.1820	-0.2192	27.55	1.74	-1.500			
0.8101	51846.62	3.1790	3.1790	-0.2152	27.56	1.75	-1.500			
0.8107	51887.64	3.1760	3.1760	-0.2135	27.57	1.76	-1.500			
0.8114	51928.90	3.1730	3.1730	-0.2119	27.57	1.76	-1.500			
0.8120	51969.05	3.1700	3.1701	-0.2087	27.58	1.77	-1.500			
0.8126	52009.22	3.1670	3.1669	-0.2065	27.58	1.77	-1.500			
0.8133	52048.33	3.1640	3.1640	-0.2042	27.59	1.78	-1.500			
0.8139	52087.33	3.1610	3.1611	-0.2020	27.60	1.79	-1.500			
0.8145	52125.74	3.1580	3.1579	-0.1988	27.60	1.79	-1.500			
0.8151	52163.97	3.1550	3.1549	-0.1974	27.61	1.80	-1.500			
0.8156	52201.11	3.1520	3.1522	-0.1947	27.61	1.80	-1.500			
0.8162	52238.37	3.1490	3.1490	-0.1934	27.62	1.81	-1.500			
0.8168	52275.43	3.1460	3.1460	-0.1922	27.62	1.81	-1.500			
0.8174	52312.12	3.1430	3.1430	-0.1907	27.63	1.82	-1.500			
0.8179	52348.78	3.1400	3.1400	-0.1884	27.64	1.83	-1.500			
0.8185	52384.78	3.1370	3.1370	-0.1866	27.64	1.83	-1.500			
0.8191	52421.00	3.1340	3.1340	-0.1843	27.65	1.84	-1.500			
0.8196	52455.84	3.1310	3.1311	-0.1823	27.65	1.84	-1.500			
0.8202	52490.25	3.1280	3.1280	-0.1803	27.66	1.85	-1.500			
0.8207	52524.75	3.1250	3.1249	-0.1790	27.66	1.85	-1.500			
0.8212	52558.73	3.1220	3.1220	-0.1773	27.67	1.86	-1.500			
0.8218	52592.50	3.1190	3.1190	-0.1763	27.67	1.86	-1.500			
0.8223	52626.67	3.1160	3.1159	-0.1756	27.68	1.87	-1.500			
0.8228	52660.27	3.1130	3.1131	-0.1740	27.68	1.87	-1.500			
0.8233	52693.72	3.1100	3.1099	-0.1725	27.69	1.88	-1.500			
0.8239	52726.45	3.1070	3.1071	-0.1710	27.69	1.88	-1.500			
0.8244	52759.17	3.1040	3.1039	-0.1694	27.70	1.89	-1.500			
0.8249	52791.53	3.1010	3.1010	-0.1681	27.71	1.90	-1.500			
0.8254	52823.73	3.0980	3.0981	-0.1667	27.71	1.90	-1.500			
0.8259	52855.48	3.0950	3.0950	-0.1650	27.72	1.91	-1.500			
0.8264	52887.17	3.0920	3.0920	-0.1639	27.73	1.92	-1.500			
0.8269	52918.51	3.0890	3.0890	-0.1624	27.73	1.92	-1.500			
0.8273	52949.55	3.0860	3.0859	-0.1609	27.74	1.93	-1.500			
0.8278	52980.05	3.0830	3.0830	-0.1600	27.75	1.94	-1.500			
0.8283	53010.57	3.0800	3.0800	-0.1594	27.75	1.94	-1.500			
0.8288	53040.93	3.0770	3.0770	-0.1586	27.76	1.95	-1.500			
0.8292	53071.48	3.0740	3.0740	-0.1580	27.76	1.95	-1.500			
0.8297	53102.08	3.0710	3.0710	-0.1565	27.77	1.96	-1.500			
0.8302	53132.11	3.0680	3.0679	-0.1557	27.78	1.97	-1.500			
0.8307	53162.07	3.0650	3.0651	-0.1544	27.78	1.97	-1.500			
0.8311	53191.28	3.0620	3.0620	-0.1538	27.79	1.98	-1.500			
0.8316	53220.58	3.0590	3.0589	-0.1519	27.80	1.99	-1.500			
0.8320	53249.57	3.0560	3.0560	-0.1507	27.80	1.99	-1.500			
0.8325	53278.42	3.0530	3.0530	-0.1499	27.81	2.00	-1.500			
0.8329	53307.19	3.0500	3.0501	-0.1489	27.81	2.00	-1.500			
0.8334	53335.87	3.0470	3.0470	-0.1485	27.82	2.01	-1.500			
0.8338	53363.92	3.0440	3.0441	-0.1473	27.83	2.02	-1.500			
0.8343	53392.16	3.0410	3.0409	-0.1469	27.83	2.02	-1.500			
0.8347	53420.12	3.0380	3.0380	-0.1457	27.84	2.03	-1.500			
0.8351	53448.42	3.0350	3.0350	-0.1453	27.84	2.03	-1.500			
0.8356	53476.35	3.0320	3.0321	-0.1440	27.85	2.04	-1.500			
0.8360	53503.85	3.0290	3.0290	-0.1425	27.85	2.04	-1.500			
0.8364	53531.01	3.0260	3.0259	-0.1420	27.86	2.05	-1.500			
0.8368	53558.02	3.0230	3.0230	-0.1410	27.87	2.06	-1.500			
0.8373	53584.81	3.0200	3.0200	-0.1401	27.87	2.06	-1.500			
0.8377	53611.74	3.0170	3.0169	-0.1395	27.88	2.07	-1.500			
0.8381	53638.59	3.0140	3.0141	-0.1389	27.88	2.07	-1.500			
0.8385	53665.29	3.0110	3.0111	-0.1382	27.89	2.08	-1.500			
0.8389	53692.04	3.0080	3.0079	-0.1369	27.89	2.08	-1.500			
0.8393	53718.15	3.0050	3.0050	-0.1351	27.90	2.09	-1.500			
0.8398	53744.05	3.0020	3.0020	-0.1356	27.90	2.09	-1.500			
