Ah_balance (normalized)	Ah_balance (mAh)	Voltage - fit (V)	Voltage -  interpolate (V)	dQ/dV (1/V)	Temperature (°C)	Temperature - diff (°C)	Current (C)	R_DC 0ms (mOhm)	R_DC 50ms (mOhm)	R_DC 50 ms PEC (mOhm)
0.1933	12373.92	3.9260	3.9259	-0.0994	25.85	-0.00	-1.500			
0.1937	12396.56	3.9230	3.9228	-0.1278	25.85	-0.00	-1.500			
0.1941	12423.57	3.9200	3.9200	-0.1529	25.85	-0.00	-1.500			
0.1946	12455.47	3.9170	3.9170	-0.1775	25.85	-0.00	-1.500			
0.1952	12492.11	3.9140	3.9141	-0.2005	25.85	-0.00	-1.500			
0.1958	12533.85	3.9110	3.9109	-0.2232	25.85	-0.00	-1.500			
0.1965	12578.90	3.9080	3.9080	-0.2442	25.85	-0.00	-1.500			
0.1973	12628.05	3.9050	3.9050	-0.2637	25.85	-0.00	-1.500			
0.1981	12680.72	3.9020	3.9020	-0.2838	25.85	-0.00	-1.500			
0.1990	12737.08	3.8990	3.8990	-0.3048	25.85	-0.00	-1.500			
0.2000	12797.39	3.8960	3.8961	-0.3242	25.85	0.00	-1.500			
0.2010	12862.10	3.8930	3.8929	-0.3425	25.85	0.00	-1.500			
0.2020	12929.78	3.8900	3.8900	-0.3596	25.85	0.00	-1.500			
0.2031	13000.08	3.8870	3.8871	-0.3802	25.85	0.00	-1.500			
0.2043	13074.71	3.8840	3.8840	-0.4002	25.85	0.00	-1.500			
0.2055	13153.83	3.8810	3.8809	-0.4175	25.85	0.00	-1.500			
0.2068	13236.00	3.8780	3.8780	-0.4349	25.86	0.01	-1.500			
0.2082	13322.13	3.8750	3.8750	-0.4526	25.86	0.01	-1.500			
0.2096	13411.21	3.8720	3.8721	-0.4672	25.86	0.01	-1.500			
0.2110	13502.48	3.8690	3.8689	-0.4802	25.86	0.01	-1.500			
0.2124	13595.33	3.8660	3.8660	-0.4900	25.86	0.01	-1.500			
0.2139	13690.60	3.8630	3.8631	-0.5020	25.86	0.01	-1.500			
0.2154	13788.40	3.8600	3.8600	-0.5143	25.86	0.01	-1.500			
0.2170	13888.84	3.8570	3.8570	-0.5246	25.86	0.01	-1.500			
0.2186	13990.52	3.8540	3.8540	-0.5340	25.87	0.02	-1.500			
0.2202	14093.90	3.8510	3.8510	-0.5435	25.87	0.02	-1.500			
0.2219	14199.09	3.8480	3.8480	-0.5521	25.87	0.02	-1.500			
0.2235	14306.67	3.8450	3.8450	-0.5598	25.87	0.02	-1.500			
0.2252	14415.05	3.8420	3.8420	-0.5644	25.87	0.02	-1.500			
0.2269	14524.72	3.8390	3.8390	-0.5689	25.87	0.02	-1.500			
0.2287	14634.36	3.8360	3.8360	-0.5728	25.88	0.03	-1.500			
0.2304	14744.30	3.8330	3.8330	-0.5749	25.88	0.03	-1.500			
0.2321	14854.95	3.8300	3.8300	-0.5766	25.89	0.04	-1.500			
0.2338	14965.05	3.8270	3.8270	-0.5816	25.89	0.04	-1.500			
0.2356	15077.13	3.8240	3.8240	-0.5876	25.89	0.04	-1.500			
0.2374	15191.53	3.8210	3.8210	-0.5932	25.90	0.05	-1.500			
0.2392	15305.76	3.8180	3.8180	-0.5978	25.90	0.05	-1.500			
0.2410	15421.47	3.8150	3.8150	-0.6000	25.90	0.05	-1.500			
0.2428	15537.07	3.8120	3.8121	-0.6040	25.91	0.06	-1.500			
0.2446	15652.86	3.8090	3.8089	-0.6077	25.91	0.06	-1.500			
0.2464	15769.38	3.8060	3.8060	-0.6079	25.91	0.06	-1.500			
0.2482	15886.78	3.8030	3.8029	-0.6100	25.92	0.07	-1.500			
0.2501	16004.31	3.8000	3.8001	-0.6122	25.92	0.07	-1.500			
0.2519	16122.27	3.7970	3.7971	-0.6149	25.93	0.08	-1.500			
0.2538	16240.65	3.7940	3.7939	-0.6186	25.93	0.08	-1.500			
0.2556	16358.48	3.7910	3.7911	-0.6211	25.94	0.09	-1.500			
0.2575	16478.56	3.7880	3.7880	-0.6254	25.95	0.10	-1.500			
0.2594	16600.07	3.7850	3.7849	-0.6308	25.95	0.10	-1.500			
0.2613	16722.00	3.7820	3.7820	-0.6309	25.96	0.11	-1.500			
0.2632	16842.83	3.7790	3.7791	-0.6338	25.96	0.11	-1.500			
0.2651	16964.39	3.7760	3.7760	-0.6370	25.97	0.12	-1.500			
0.2670	17086.29	3.7730	3.7730	-0.6403	25.98	0.13	-1.500			
0.2689	17209.88	3.7700	3.7700	-0.6452	25.98	0.13	-1.500			
0.2709	17335.10	3.7670	3.7671	-0.6478	25.99	0.14	-1.500			
0.2728	17460.46	3.7640	3.7640	-0.6526	25.99	0.14	-1.500			
0.2748	17586.31	3.7610	3.7611	-0.6543	26.00	0.15	-1.500			
0.2767	17710.54	3.7580	3.7580	-0.6582	26.01	0.16	-1.500			
0.2787	17837.85	3.7550	3.7550	-0.6623	26.01	0.16	-1.500			
0.2807	17965.53	3.7520	3.7520	-0.6651	26.02	0.17	-1.500			
0.2827	18094.12	3.7490	3.7490	-0.6742	26.02	0.17	-1.500			
0.2847	18223.55	3.7460	3.7462	-0.6802	26.03	0.18	-1.500			
0.2868	18354.72	3.7430	3.7429	-0.6838	26.03	0.18	-1.500			
0.2889	18487.10	3.7400	3.7400	-0.6883	26.04	0.19	-1.500			
0.2909	18617.90	3.7370	3.7371	-0.6935	26.05	0.20	-1.500			
0.2930	18753.56	3.7340	3.7340	-0.6994	26.05	0.20	-1.500			
0.2951	18889.19	3.7310	3.7309	-0.7059	26.06	0.21	-1.500			
0.2973	19024.00	3.7280	3.7280	-0.7110	26.06	0.21	-1.500			
0.2994	19161.06	3.7250	3.7251	-0.7155	26.07	0.22	-1.500			
0.3016	19299.51	3.7220	3.7219	-0.7219	26.07	0.22	-1.500			
0.3037	19438.33	3.7190	3.7190	-0.7287	26.08	0.23	-1.500			
0.3059	19578.02	3.7160	3.7160	-0.7339	26.09	0.24	-1.500			
0.3081	19719.62	3.7130	3.7130	-0.7428	26.09	0.24	-1.500			
0.3104	19863.41	3.7100	3.7100	-0.7470	26.10	0.25	-1.500			
0.3126	20007.33	3.7070	3.7070	-0.7562	26.10	0.25	-1.500			
0.3149	20153.30	3.7040	3.7040	-0.7677	26.11	0.26	-1.500			
0.3172	20301.48	3.7010	3.7009	-0.7758	26.11	0.26	-1.500			
0.3196	20452.00	3.6980	3.6980	-0.7793	26.12	0.27	-1.500			
0.3219	20602.42	3.6950	3.6950	-0.7867	26.12	0.27	-1.500			
0.3243	20754.16	3.6920	3.6921	-0.7936	26.13	0.28	-1.500			
0.3267	20907.41	3.6890	3.6889	-0.8008	26.13	0.28	-1.500			
0.3291	21060.21	3.6860	3.6859	-0.8043	26.14	0.29	-1.500			
0.3315	21215.00	3.6830	3.6830	-0.8103	26.14	0.29	-1.500			
0.3339	21370.56	3.6800	3.6801	-0.8228	26.15	0.30	-1.500			
0.3364	21531.00	3.6770	3.6770	-0.8350	26.15	0.30	-1.500			
0.3389	21691.69	3.6740	3.6739	-0.8388	26.16	0.31	-1.500			
0.3415	21853.57	3.6710	3.6710	-0.8466	26.16	0.31	-1.500			
0.3440	22017.08	3.6680	3.6681	-0.8556	26.17	0.32	-1.500			
0.3466	22182.62	3.6650	3.6650	-0.8646	26.17	0.32	-1.500			
0.3492	22349.41	3.6620	3.6619	-0.8711	26.18	0.33	-1.500			
0.3518	22515.07	3.6590	3.6590	-0.8765	26.19	0.34	-1.500			
0.3545	22684.96	3.6560	3.6560	-0.8883	26.20	0.35	-1.500			
0.3571	22857.21	3.6530	3.6530	-0.9009	26.20	0.35	-1.500			
0.3599	23030.55	3.6500	3.6500	-0.9092	26.21	0.36	-1.500			
0.3626	23206.33	3.6470	3.6470	-0.9171	26.22	0.37	-1.500			
0.3654	23383.40	3.6440	3.6440	-0.9279	26.23	0.38	-1.500			
0.3682	23562.14	3.6410	3.6410	-0.9395	26.24	0.39	-1.500			
0.3710	23743.27	3.6380	3.6380	-0.9479	26.25	0.40	-1.500			
0.3739	23926.44	3.6350	3.6350	-0.9569	26.26	0.41	-1.500			
0.3767	24110.86	3.6320	3.6320	-0.9667	26.26	0.41	-1.500			
0.3797	24297.97	3.6290	3.6290	-0.9764	26.27	0.42	-1.500			
0.3826	24485.91	3.6260	3.6261	-0.9891	26.27	0.42	-1.500			
0.3856	24676.72	3.6230	3.6230	-0.9969	26.28	0.43	-1.500			
0.3886	24868.07	3.6200	3.6200	-1.0112	26.28	0.43	-1.500			
0.3917	25065.67	3.6170	3.6170	-1.0207	26.29	0.44	-1.500			
0.3947	25261.51	3.6140	3.6140	-1.0333	26.29	0.44	-1.500			
0.3978	25460.30	3.6110	3.6110	-1.0473	26.30	0.45	-1.500			
0.4010	25662.45	3.6080	3.6079	-1.0610	26.30	0.45	-1.500			
0.4042	25866.92	3.6050	3.6050	-1.0741	26.31	0.46	-1.500			
0.4074	26075.11	3.6020	3.6021	-1.0934	26.31	0.46	-1.500			
0.4107	26286.57	3.5990	3.5990	-1.1050	26.32	0.47	-1.500			
0.4141	26502.23	3.5960	3.5960	-1.1245	26.32	0.47	-1.500			
0.4175	26718.52	3.5930	3.5930	-1.1312	26.33	0.48	-1.500			
0.4209	26937.18	3.5900	3.5900	-1.1442	26.33	0.48	-1.500			
0.4243	27157.66	3.5870	3.5870	-1.1607	26.34	0.49	-1.500			
0.4278	27382.00	3.5840	3.5840	-1.1749	26.35	0.50	-1.500			
0.4314	27608.28	3.5810	3.5810	-1.1867	26.35	0.50	-1.500			
0.4350	27837.83	3.5780	3.5780	-1.2046	26.36	0.51	-1.500			
0.4386	28070.96	3.5750	3.5751	-1.2231	26.36	0.51	-1.500			
0.4423	28307.67	3.5720	3.5719	-1.2430	26.37	0.52	-1.500			
0.4460	28547.18	3.5690	3.5689	-1.2593	26.37	0.52	-1.500			
0.4498	28790.01	3.5660	3.5661	-1.2746	26.38	0.53	-1.500			
0.4537	29037.16	3.5630	3.5629	-1.2963	26.39	0.54	-1.500			
0.4576	29288.87	3.5600	3.5601	-1.3185	26.40	0.55	-1.500			
0.4616	29542.55	3.5570	3.5570	-1.3414	26.40	0.55	-1.500			
0.4657	29803.67	3.5540	3.5540	-1.3642	26.41	0.56	-1.500			
0.4698	30068.37	3.5510	3.5510	-1.3754	26.42	0.57	-1.500			
0.4740	30334.79	3.5480	3.5480	-1.3908	26.43	0.58	-1.500			
0.4782	30602.52	3.5450	3.5450	-1.4067	26.44	0.59	-1.500			
0.4824	30872.15	3.5420	3.5420	-1.4214	26.45	0.60	-1.500			
0.4866	31144.63	3.5390	3.5390	-1.4460	26.45	0.60	-1.500			
0.4910	31424.90	3.5360	3.5360	-1.4632	26.46	0.61	-1.500			
0.4955	31710.01	3.5330	3.5330	-1.4907	26.47	0.62	-1.500			
0.5000	32000.85	3.5300	3.5300	-1.5020	26.48	0.63	-1.500			
0.5046	32292.37	3.5270	3.5270	-1.5140	26.49	0.64	-1.500			
0.5091	32583.26	3.5240	3.5239	-1.5288	26.50	0.65	-1.500			
0.5137	32875.14	3.5210	3.5201	-1.5406	26.51	0.66	-1.500	0.368	0.554	
0.5183	33173.59	3.5180	3.5179	-1.5487	26.52	0.67	-1.500			
0.5230	33472.71	3.5150	3.5150	-1.5617	26.53	0.68	-1.500			
0.5277	33772.88	3.5120	3.5120	-1.5771	26.54	0.69	-1.500			
0.5325	34076.88	3.5090	3.5090	-1.5961	26.55	0.70	-1.500			
0.5373	34387.77	3.5060	3.5059	-1.6004	26.56	0.71	-1.500			
0.5421	34696.07	3.5030	3.5030	-1.6050	26.57	0.72	-1.500			
0.5470	35007.01	3.5000	3.5000	-1.6085	26.57	0.72	-1.500			
0.5518	35316.80	3.4970	3.4970	-1.6127	26.59	0.74	-1.500			
0.5566	35622.59	3.4940	3.4940	-1.6146	26.60	0.75	-1.500			
0.5615	35933.32	3.4910	3.4910	-1.6095	26.61	0.76	-1.500			
0.5663	36242.25	3.4880	3.4880	-1.6133	26.63	0.78	-1.500			
0.5712	36557.07	3.4850	3.4850	-1.6220	26.64	0.79	-1.500			
0.5761	36868.13	3.4820	3.4820	-1.6150	26.65	0.80	-1.500			
0.5809	37178.23	3.4790	3.4789	-1.6070	26.67	0.82	-1.500			
0.5857	37485.28	3.4760	3.4761	-1.5994	26.68	0.83	-1.500			
0.5905	37791.88	3.4730	3.4729	-1.5874	26.69	0.84	-1.500			
0.5953	38098.75	3.4700	3.4700	-1.5825	26.70	0.85	-1.500			
0.6000	38400.17	3.4670	3.4671	-1.5610	26.71	0.86	-1.500			
0.6047	38699.27	3.4640	3.4640	-1.5431	26.72	0.87	-1.500			
0.6093	38994.15	3.4610	3.4610	-1.5282	26.74	0.89	-1.500			
0.6138	39285.87	3.4580	3.4580	-1.5078	26.75	0.90	-1.500			
0.6183	39573.60	3.4550	3.4550	-1.4940	26.76	0.91	-1.500			
0.6228	39858.53	3.4520	3.4519	-1.4739	26.78	0.93	-1.500			
0.6272	40139.23	3.4490	3.4490	-1.4581	26.79	0.94	-1.500			
0.6315	40419.05	3.4460	3.4460	-1.4388	26.80	0.95	-1.500			
0.6358	40692.82	3.4430	3.4430	-1.4246	26.82	0.97	-1.500			
0.6400	40962.52	3.4400	3.4400	-1.4049	26.83	0.98	-1.500			
0.6443	41234.20	3.4370	3.4369	-1.3856	26.84	0.99	-1.500			
0.6484	41498.14	3.4340	3.4340	-1.3658	26.86	1.01	-1.500			
0.6525	41759.11	3.4310	3.4310	-1.3479	26.87	1.02	-1.500			
0.6565	42014.93	3.4280	3.4280	-1.3285	26.89	1.04	-1.500			
0.6604	42268.07	3.4250	3.4249	-1.3134	26.90	1.05	-1.500			
0.6643	42516.52	3.4220	3.4220	-1.2900	26.92	1.07	-1.500			
0.6682	42764.21	3.4190	3.4190	-1.2771	26.93	1.08	-1.500			
0.6720	43010.64	3.4160	3.4160	-1.2559	26.95	1.10	-1.500			
0.6758	43249.44	3.4130	3.4130	-1.2296	26.97	1.12	-1.500			
0.6794	43483.30	3.4100	3.4101	-1.2055	26.98	1.13	-1.500			
0.6830	43711.85	3.4070	3.4070	-1.1797	26.99	1.14	-1.500			
0.6865	43934.30	3.4040	3.4040	-1.1568	27.01	1.16	-1.500			
0.6899	44155.93	3.4010	3.4010	-1.1367	27.02	1.17	-1.500			
0.6933	44372.21	3.3980	3.3979	-1.1090	27.04	1.19	-1.500			
0.6966	44584.51	3.3950	3.3950	-1.0834	27.05	1.20	-1.500			
0.6998	44790.13	3.3920	3.3921	-1.0501	27.06	1.21	-1.500			
0.7029	44988.18	3.3890	3.3890	-1.0163	27.07	1.22	-1.500			
0.7059	45179.06	3.3860	3.3861	-0.9815	27.09	1.24	-1.500			
0.7088	45363.21	3.3830	3.3829	-0.9498	27.10	1.25	-1.500			
0.7116	45542.82	3.3800	3.3801	-0.9237	27.11	1.26	-1.500			
0.7143	45717.52	3.3770	3.3770	-0.8967	27.12	1.27	-1.500			
0.7170	45887.28	3.3740	3.3740	-0.8705	27.13	1.28	-1.500			
0.7196	46052.00	3.3710	3.3710	-0.8473	27.14	1.29	-1.500			
0.7220	46211.16	3.3680	3.3680	-0.8203	27.15	1.30	-1.500			
0.7245	46366.34	3.3650	3.3650	-0.7979	27.17	1.32	-1.500			
0.7268	46516.79	3.3620	3.3620	-0.7723	27.18	1.33	-1.500			
0.7291	46662.33	3.3590	3.3590	-0.7512	27.19	1.34	-1.500			
0.7313	46803.80	3.3560	3.3560	-0.7306	27.20	1.35	-1.500			
0.7335	46941.98	3.3530	3.3529	-0.7109	27.21	1.36	-1.500			
0.7356	47075.81	3.3500	3.3500	-0.6915	27.22	1.37	-1.500			
0.7376	47207.86	3.3470	3.3469	-0.6738	27.23	1.38	-1.500			
0.7396	47334.77	3.3440	3.3440	-0.6554	27.23	1.38	-1.500			
0.7416	47459.64	3.3410	3.3410	-0.6380	27.24	1.39	-1.500			
0.7434	47579.37	3.3380	3.3380	-0.6188	27.25	1.40	-1.500			
0.7453	47696.77	3.3350	3.3349	-0.6022	27.26	1.41	-1.500			
0.7470	47809.61	3.3320	3.3321	-0.5884	27.26	1.41	-1.500			
0.7488	47921.42	3.3290	3.3290	-0.5737	27.27	1.42	-1.500			
0.7505	48030.64	3.3260	3.3259	-0.5606	27.28	1.43	-1.500			
0.7521	48136.51	3.3230	3.3230	-0.5471	27.28	1.43	-1.500			
0.7538	48240.23	3.3200	3.3201	-0.5347	27.29	1.44	-1.500			
0.7553	48341.14	3.3170	3.3169	-0.5244	27.30	1.45	-1.500			
0.7569	48441.04	3.3140	3.3139	-0.5123	27.31	1.46	-1.500			
0.7584	48537.86	3.3110	3.3110	-0.4964	27.32	1.47	-1.500			
0.7599	48632.76	3.3080	3.3081	-0.4851	27.33	1.48	-1.500			
0.7613	48724.93	3.3050	3.3051	-0.4735	27.33	1.48	-1.500			
0.7627	48814.10	3.3020	3.3019	-0.4615	27.34	1.49	-1.500			
0.7641	48900.52	3.2990	3.2990	-0.4496	27.35	1.50	-1.500			
0.7654	48985.70	3.2960	3.2960	-0.4379	27.36	1.51	-1.500			
0.7667	49069.81	3.2930	3.2930	-0.4296	27.36	1.51	-1.500			
0.7680	49151.32	3.2900	3.2901	-0.4196	27.37	1.52	-1.500			
0.7692	49230.66	3.2870	3.2870	-0.4088	27.38	1.53	-1.500			
0.7704	49308.09	3.2840	3.2839	-0.3982	27.38	1.53	-1.500			
0.7716	49382.98	3.2810	3.2810	-0.3878	27.39	1.54	-1.500			
0.7728	49456.38	3.2780	3.2781	-0.3803	27.39	1.54	-1.500			
0.7739	49528.52	3.2750	3.2750	-0.3736	27.40	1.55	-1.500			
0.7750	49599.34	3.2720	3.2719	-0.3666	27.40	1.55	-1.500			
0.7761	49669.18	3.2690	3.2690	-0.3600	27.41	1.56	-1.500			
0.7772	49738.03	3.2660	3.2660	-0.3523	27.42	1.57	-1.500			
0.7782	49805.16	3.2630	3.2630	-0.3451	27.42	1.57	-1.500			
0.7792	49871.39	3.2600	3.2600	-0.3358	27.43	1.58	-1.500			
0.7802	49933.92	3.2570	3.2570	-0.3279	27.44	1.59	-1.500			
0.7812	49996.13	3.2540	3.2540	-0.3203	27.44	1.59	-1.500			
0.7821	50055.90	3.2510	3.2511	-0.3146	27.45	1.60	-1.500			
0.7831	50116.04	3.2480	3.2479	-0.3092	27.45	1.60	-1.500			
0.7840	50175.63	3.2450	3.2451	-0.3033	27.46	1.61	-1.500			
0.7849	50232.81	3.2420	3.2420	-0.2975	27.46	1.61	-1.500			
0.7858	50289.70	3.2390	3.2392	-0.2933	27.47	1.62	-1.500			
0.7866	50344.76	3.2360	3.2359	-0.2870	27.47	1.62	-1.500			
0.7875	50399.08	3.2330	3.2330	-0.2827	27.48	1.63	-1.500			
0.7883	50452.83	3.2300	3.2300	-0.2773	27.49	1.64	-1.500			
0.7892	50506.48	3.2270	3.2270	-0.2743	27.49	1.64	-1.500			
0.7900	50558.60	3.2240	3.2240	-0.2698	27.50	1.65	-1.500			
0.7908	50609.57	3.2210	3.2211	-0.2627	27.50	1.65	-1.500			
0.7916	50659.74	3.2180	3.2179	-0.2583	27.51	1.66	-1.500			
0.7923	50708.23	3.2150	3.2150	-0.2539	27.51	1.66	-1.500			
0.7931	50756.37	3.2120	3.2121	-0.2508	27.52	1.67	-1.500			
0.7938	50803.98	3.2090	3.2089	-0.2468	27.52	1.67	-1.500			
0.7946	50851.25	3.2060	3.2060	-0.2450	27.53	1.68	-1.500			
0.7953	50898.04	3.2030	3.2030	-0.2418	27.54	1.69	-1.500			
0.7960	50944.13	3.2000	3.2000	-0.2388	27.54	1.69	-1.500			
0.7967	50990.12	3.1970	3.1969	-0.2362	27.55	1.70	-1.500			
0.7974	51035.27	3.1940	3.1941	-0.2320	27.55	1.70	-1.500			
0.7981	51079.52	3.1910	3.1910	-0.2279	27.56	1.71	-1.500			
0.7988	51122.81	3.1880	3.1880	-0.2248	27.56	1.71	-1.500			
0.7995	51165.72	3.1850	3.1851	-0.2212	27.57	1.72	-1.500			
0.8001	51207.23	3.1820	3.1820	-0.2182	27.58	1.73	-1.500			
0.8008	51248.57	3.1790	3.1789	-0.2164	27.58	1.73	-1.500			
0.8014	51290.27	3.1760	3.1760	-0.2142	27.59	1.74	-1.500			
0.8020	51330.96	3.1730	3.1729	-0.2121	27.59	1.74	-1.500			
0.8027	51371.94	3.1700	3.1700	-0.2104	27.60	1.75	-1.500			
0.8033	51412.21	3.1670	3.1671	-0.2087	27.61	1.76	-1.500			
0.8039	51452.05	3.1640	3.1639	-0.2058	27.61	1.76	-1.500			
0.8046	51491.30	3.1610	3.1610	-0.2031	27.62	1.77	-1.500			
0.8052	51529.82	3.1580	3.1580	-0.2009	27.62	1.77	-1.500			
0.8058	51568.11	3.1550	3.1550	-0.1981	27.63	1.78	-1.500			
0.8063	51606.07	3.1520	3.1520	-0.1971	27.64	1.79	-1.500			
0.8069	51643.69	3.1490	3.1490	-0.1948	27.64	1.79	-1.500			
0.8075	51680.75	3.1460	3.1460	-0.1924	27.65	1.80	-1.500			
0.8081	51717.30	3.1430	3.1429	-0.1904	27.65	1.80	-1.500			
0.8087	51753.88	3.1400	3.1399	-0.1890	27.66	1.81	-1.500			
0.8092	51789.99	3.1370	3.1372	-0.1871	27.66	1.81	-1.500			
0.8098	51825.70	3.1340	3.1340	-0.1845	27.67	1.82	-1.500			
0.8103	51860.98	3.1310	3.1311	-0.1832	27.67	1.82	-1.500			
0.8109	51895.56	3.1280	3.1280	-0.1812	27.68	1.83	-1.500			
0.8114	51930.25	3.1250	3.1250	-0.1802	27.69	1.84	-1.500			
0.8119	51964.65	3.1220	3.1219	-0.1794	27.69	1.84	-1.500			
0.8125	51998.90	3.1190	3.1190	-0.1780	27.70	1.85	-1.500			
0.8130	52033.39	3.1160	3.1161	-0.1769	27.70	1.85	-1.500			
0.8136	52067.21	3.1130	3.1129	-0.1754	27.71	1.86	-1.500			
0.8141	52101.15	3.1100	3.1100	-0.1735	27.71	1.86	-1.500			
0.8146	52133.94	3.1070	3.1071	-0.1721	27.72	1.87	-1.500			
0.8151	52166.89	3.1040	3.1040	-0.1697	27.72	1.87	-1.500			
0.8156	52199.30	3.1010	3.1010	-0.1678	27.73	1.88	-1.500			
0.8161	52231.14	3.0980	3.0980	-0.1665	27.73	1.88	-1.500			
0.8166	52262.81	3.0950	3.0952	-0.1656	27.74	1.89	-1.500			
0.8171	52294.84	3.0920	3.0919	-0.1645	27.75	1.90	-1.500			
0.8176	52326.27	3.0890	3.0889	-0.1629	27.75	1.90	-1.500			
0.8181	52357.30	3.0860	3.0860	-0.1623	27.76	1.91	-1.500			
0.8186	52388.29	3.0830	3.0831	-0.1603	27.76	1.91	-1.500			
0.8190	52418.97	3.0800	3.0800	-0.1605	27.77	1.92	-1.500			
0.8195	52449.68	3.0770	3.0769	-0.1594	27.77	1.92	-1.500			
0.8200	52479.99	3.0740	3.0741	-0.1579	27.78	1.93	-1.500			
0.8205	52510.16	3.0710	3.0709	-0.1567	27.78	1.93	-1.500			
0.8209	52540.33	3.0680	3.0680	-0.1556	27.79	1.94	-1.500			
0.8214	52570.44	3.0650	3.0651	-0.1547	27.79	1.94	-1.500			
0.8219	52599.65	3.0620	3.0620	-0.1540	27.80	1.95	-1.500			
0.8223	52629.47	3.0590	3.0590	-0.1534	27.80	1.95	-1.500			
0.8228	52658.41	3.0560	3.0559	-0.1514	27.81	1.96	-1.500			
0.8232	52687.51	3.0530	3.0530	-0.1506	27.82	1.97	-1.500			
0.8237	52716.53	3.0500	3.0501	-0.1501	27.82	1.97	-1.500			
0.8241	52745.33	3.0470	3.0471	-0.1489	27.83	1.98	-1.500			
0.8246	52773.94	3.0440	3.0439	-0.1478	27.83	1.98	-1.500			
0.8250	52802.08	3.0410	3.0410	-0.1467	27.84	1.99	-1.500			
0.8255	52829.69	3.0380	3.0381	-0.1458	27.84	1.99	-1.500			
0.8259	52857.73	3.0350	3.0351	-0.1457	27.85	2.00	-1.500			
0.8263	52885.67	3.0320	3.0319	-0.1453	27.85	2.00	-1.500			
0.8268	52913.48	3.0290	3.0289	-0.1448	27.86	2.01	-1.500			
0.8272	52941.60	3.0260	3.0260	-0.1430	27.86	2.01	-1.500			
0.8276	52969.02	3.0230	3.0230	-0.1426	27.87	2.02	-1.500			
0.8281	52996.24	3.0200	3.0201	-0.1410	27.87	2.02	-1.500			
0.8285	53023.11	3.0170	3.0170	-0.1399	27.88	2.03	-1.500			
0.8289	53049.65	3.0140	3.0139	-0.1384	27.88	2.03	-1.500			
0.8293	53075.98	3.0110	3.0110	-0.1373	27.89	2.04	-1.500			
0.8297	53102.30	3.0080	3.0080	-0.1368	27.89	2.04	-1.500			
0.8301	53128.44	3.0050	3.0050	-0.1367	27.90	2.05	-1.501			
0.8305	53154.50	3.0020	3.0019	-0.1302	27.90	2.05	-1.501			
