Ah_balance (normalized)	Ah_balance (mAh)	Voltage - fit (V)	Voltage -  interpolate (V)	dQ/dV (1/V)	Temperature (°C)	Temperature - diff (°C)	Current (C)	R_DC 0ms (mOhm)	R_DC 50ms (mOhm)	R_DC 50 ms PEC (mOhm)
0.1887	12077.20	3.9280	3.9277	-0.0917	25.51	-0.00	-1.500			
0.1890	12098.52	3.9250	3.9250	-0.1229	25.51	-0.00	-1.500			
0.1895	12125.19	3.9220	3.9218	-0.1498	25.51	-0.00	-1.500			
0.1899	12156.44	3.9190	3.9190	-0.1757	25.51	-0.00	-1.500			
0.1905	12193.02	3.9160	3.9161	-0.1996	25.51	-0.00	-1.500			
0.1912	12234.53	3.9130	3.9130	-0.2249	25.51	-0.00	-1.500			
0.1919	12279.55	3.9100	3.9100	-0.2482	25.51	-0.00	-1.500			
0.1927	12329.66	3.9070	3.9070	-0.2714	25.51	-0.00	-1.500			
0.1935	12383.85	3.9040	3.9040	-0.2946	25.51	-0.00	-1.500			
0.1944	12442.97	3.9010	3.9009	-0.3167	25.51	-0.00	-1.500			
0.1954	12506.30	3.8980	3.8981	-0.3381	25.51	0.00	-1.500			
0.1965	12573.22	3.8950	3.8950	-0.3599	25.51	0.00	-1.500			
0.1976	12644.22	3.8920	3.8920	-0.3814	25.51	0.00	-1.500			
0.1987	12719.52	3.8890	3.8890	-0.4007	25.51	0.00	-1.500			
0.2000	12798.72	3.8860	3.8860	-0.4217	25.51	0.00	-1.500			
0.2013	12882.13	3.8830	3.8830	-0.4412	25.51	0.00	-1.500			
0.2026	12968.75	3.8800	3.8800	-0.4619	25.51	0.00	-1.500			
0.2040	13058.88	3.8770	3.8770	-0.4822	25.51	0.00	-1.500			
0.2055	13153.67	3.8740	3.8740	-0.4981	25.51	0.00	-1.500			
0.2071	13251.80	3.8710	3.8710	-0.5140	25.51	0.00	-1.500			
0.2086	13352.93	3.8680	3.8681	-0.5260	25.52	0.01	-1.500			
0.2102	13455.99	3.8650	3.8650	-0.5360	25.52	0.01	-1.500			
0.2119	13559.36	3.8620	3.8620	-0.5458	25.52	0.01	-1.500			
0.2135	13664.34	3.8590	3.8589	-0.5546	25.52	0.01	-1.500			
0.2152	13771.11	3.8560	3.8560	-0.5639	25.52	0.01	-1.500			
0.2169	13881.29	3.8530	3.8530	-0.5725	25.52	0.01	-1.500			
0.2186	13992.51	3.8500	3.8500	-0.5824	25.52	0.01	-1.500			
0.2204	14105.45	3.8470	3.8471	-0.5911	25.52	0.01	-1.500			
0.2222	14220.40	3.8440	3.8439	-0.5953	25.53	0.02	-1.500			
0.2240	14334.68	3.8410	3.8410	-0.5993	25.53	0.02	-1.500			
0.2258	14450.26	3.8380	3.8381	-0.6027	25.53	0.02	-1.500			
0.2276	14566.67	3.8350	3.8350	-0.6098	25.54	0.03	-1.500			
0.2294	14683.84	3.8320	3.8319	-0.6134	25.54	0.03	-1.500			
0.2313	14801.09	3.8290	3.8290	-0.6144	25.55	0.04	-1.500			
0.2331	14919.73	3.8260	3.8260	-0.6181	25.55	0.04	-1.500			
0.2350	15039.68	3.8230	3.8231	-0.6265	25.56	0.05	-1.500			
0.2369	15160.63	3.8200	3.8199	-0.6254	25.56	0.05	-1.500			
0.2388	15280.84	3.8170	3.8170	-0.6288	25.56	0.05	-1.500			
0.2406	15401.51	3.8140	3.8140	-0.6295	25.57	0.06	-1.500			
0.2425	15522.95	3.8110	3.8111	-0.6320	25.57	0.06	-1.500			
0.2444	15644.28	3.8080	3.8080	-0.6354	25.58	0.07	-1.500			
0.2463	15766.33	3.8050	3.8050	-0.6354	25.58	0.07	-1.500			
0.2483	15888.22	3.8020	3.8020	-0.6350	25.59	0.08	-1.500			
0.2502	16010.98	3.7990	3.7990	-0.6419	25.59	0.08	-1.500			
0.2521	16133.34	3.7960	3.7961	-0.6418	25.59	0.08	-1.500			
0.2540	16257.01	3.7930	3.7929	-0.6450	25.60	0.09	-1.500			
0.2560	16381.33	3.7900	3.7900	-0.6461	25.60	0.09	-1.500			
0.2579	16505.20	3.7870	3.7870	-0.6472	25.61	0.10	-1.500			
0.2599	16630.41	3.7840	3.7840	-0.6506	25.61	0.10	-1.500			
0.2618	16756.18	3.7810	3.7810	-0.6503	25.61	0.10	-1.500			
0.2638	16880.11	3.7780	3.7780	-0.6510	25.62	0.11	-1.500			
0.2657	17005.57	3.7750	3.7750	-0.6530	25.62	0.11	-1.500			
0.2677	17130.51	3.7720	3.7720	-0.6576	25.63	0.12	-1.500			
0.2696	17257.14	3.7690	3.7691	-0.6595	25.63	0.12	-1.500			
0.2716	17384.59	3.7660	3.7659	-0.6615	25.64	0.13	-1.500			
0.2736	17511.29	3.7630	3.7630	-0.6671	25.64	0.13	-1.500			
0.2756	17640.04	3.7600	3.7601	-0.6709	25.65	0.14	-1.500			
0.2776	17768.58	3.7570	3.7570	-0.6735	25.66	0.15	-1.500			
0.2797	17898.50	3.7540	3.7540	-0.6782	25.66	0.15	-1.500			
0.2817	18029.26	3.7510	3.7510	-0.6791	25.67	0.16	-1.500			
0.2838	18160.25	3.7480	3.7480	-0.6852	25.68	0.17	-1.500			
0.2858	18291.81	3.7450	3.7450	-0.6875	25.69	0.18	-1.500			
0.2879	18423.11	3.7420	3.7421	-0.6913	25.69	0.18	-1.500			
0.2900	18557.54	3.7390	3.7389	-0.6969	25.70	0.19	-1.500			
0.2921	18691.26	3.7360	3.7360	-0.7034	25.71	0.20	-1.500			
0.2942	18827.30	3.7330	3.7330	-0.7095	25.72	0.21	-1.500			
0.2963	18965.18	3.7300	3.7300	-0.7154	25.72	0.21	-1.500			
0.2985	19101.68	3.7270	3.7270	-0.7203	25.73	0.22	-1.500			
0.3006	19240.05	3.7240	3.7241	-0.7269	25.73	0.22	-1.500			
0.3028	19379.75	3.7210	3.7210	-0.7317	25.73	0.22	-1.500			
0.3050	19521.44	3.7180	3.7180	-0.7408	25.74	0.23	-1.500			
0.3072	19663.89	3.7150	3.7150	-0.7449	25.74	0.23	-1.500			
0.3095	19808.07	3.7120	3.7119	-0.7521	25.74	0.23	-1.500			
0.3118	19952.99	3.7090	3.7090	-0.7632	25.75	0.24	-1.500			
0.3141	20100.32	3.7060	3.7060	-0.7688	25.75	0.24	-1.500			
0.3164	20248.67	3.7030	3.7029	-0.7771	25.75	0.24	-1.500			
0.3187	20399.72	3.7000	3.6999	-0.7834	25.76	0.25	-1.500			
0.3211	20550.43	3.6970	3.6970	-0.7890	25.76	0.25	-1.500			
0.3235	20702.50	3.6940	3.6940	-0.7994	25.77	0.26	-1.500			
0.3259	20856.60	3.6910	3.6911	-0.8064	25.77	0.26	-1.500			
0.3283	21010.55	3.6880	3.6879	-0.8117	25.78	0.27	-1.500			
0.3308	21168.26	3.6850	3.6851	-0.8255	25.79	0.28	-1.500			
0.3332	21327.81	3.6820	3.6820	-0.8319	25.79	0.28	-1.500			
0.3358	21488.17	3.6790	3.6790	-0.8432	25.80	0.29	-1.500			
0.3383	21650.57	3.6760	3.6761	-0.8546	25.80	0.29	-1.500			
0.3409	21815.06	3.6730	3.6730	-0.8667	25.81	0.30	-1.500			
0.3435	21984.34	3.6700	3.6699	-0.8789	25.82	0.31	-1.500			
0.3462	22154.17	3.6670	3.6671	-0.8909	25.82	0.31	-1.500			
0.3488	22326.27	3.6640	3.6640	-0.9021	25.83	0.32	-1.500			
0.3516	22501.70	3.6610	3.6610	-0.9126	25.84	0.33	-1.500			
0.3543	22675.93	3.6580	3.6580	-0.9207	25.84	0.33	-1.500			
0.3571	22854.03	3.6550	3.6550	-0.9304	25.85	0.34	-1.500			
0.3599	23033.76	3.6520	3.6520	-0.9417	25.86	0.35	-1.500			
0.3628	23216.47	3.6490	3.6490	-0.9517	25.86	0.35	-1.500			
0.3656	23399.51	3.6460	3.6461	-0.9612	25.87	0.36	-1.500			
0.3685	23585.15	3.6430	3.6430	-0.9721	25.88	0.37	-1.500			
0.3714	23772.10	3.6400	3.6400	-0.9866	25.88	0.37	-1.500			
0.3744	23962.42	3.6370	3.6370	-0.9989	25.88	0.37	-1.500			
0.3774	24155.27	3.6340	3.6340	-1.0150	25.89	0.38	-1.500			
0.3805	24351.63	3.6310	3.6310	-1.0270	25.89	0.38	-1.500			
0.3836	24550.61	3.6280	3.6281	-1.0408	25.89	0.38	-1.500			
0.3868	24752.65	3.6250	3.6250	-1.0500	25.89	0.38	-1.500			
0.3899	24954.98	3.6220	3.6219	-1.0621	25.90	0.39	-1.500			
0.3931	25158.09	3.6190	3.6191	-1.0722	25.90	0.39	-1.500			
0.3963	25365.25	3.6160	3.6159	-1.0898	25.90	0.39	-1.500			
0.3996	25575.34	3.6130	3.6130	-1.1032	25.91	0.40	-1.500			
0.4030	25790.63	3.6100	3.6100	-1.1164	25.91	0.40	-1.500			
0.4063	26004.69	3.6070	3.6070	-1.1329	25.92	0.41	-1.500			
0.4098	26224.45	3.6040	3.6040	-1.1486	25.92	0.41	-1.500			
0.4132	26445.21	3.6010	3.6011	-1.1567	25.93	0.42	-1.500			
0.4167	26668.33	3.5980	3.5979	-1.1722	25.93	0.42	-1.500			
0.4202	26895.57	3.5950	3.5952	-1.1841	25.94	0.43	-1.500			
0.4238	27123.49	3.5920	3.5920	-1.2061	25.95	0.44	-1.500			
0.4275	27357.04	3.5890	3.5890	-1.2212	25.95	0.44	-1.500			
0.4311	27591.36	3.5860	3.5860	-1.2343	25.96	0.45	-1.500			
0.4349	27830.64	3.5830	3.5829	-1.2495	25.96	0.45	-1.500			
0.4386	28071.75	3.5800	3.5800	-1.2684	25.97	0.46	-1.500			
0.4424	28314.90	3.5770	3.5771	-1.2854	25.98	0.47	-1.500			
0.4463	28564.79	3.5740	3.5740	-1.3027	25.98	0.47	-1.500			
0.4502	28814.36	3.5710	3.5710	-1.3171	25.99	0.48	-1.500			
0.4543	29072.28	3.5680	3.5680	-1.3396	25.99	0.48	-1.500			
0.4583	29329.52	3.5650	3.5651	-1.3637	26.00	0.49	-1.500			
0.4624	29595.25	3.5620	3.5619	-1.3831	26.01	0.50	-1.500			
0.4666	29861.25	3.5590	3.5590	-1.3984	26.01	0.50	-1.500			
0.4708	30133.46	3.5560	3.5561	-1.4129	26.02	0.51	-1.500			
0.4751	30406.34	3.5530	3.5530	-1.4372	26.03	0.52	-1.500			
0.4794	30681.97	3.5500	3.5500	-1.4560	26.03	0.52	-1.500			
0.4838	30962.34	3.5470	3.5470	-1.4754	26.04	0.53	-1.500			
0.4882	31247.32	3.5440	3.5439	-1.4952	26.05	0.54	-1.500			
0.4928	31538.23	3.5410	3.5410	-1.5162	26.06	0.55	-1.500			
0.4974	31833.52	3.5380	3.5380	-1.5319	26.06	0.55	-1.500			
0.5020	32129.05	3.5350	3.5350	-1.5571	26.07	0.56	-1.500			
0.5067	32427.79	3.5320	3.5320	-1.5688	26.08	0.57	-1.500			
0.5115	32733.17	3.5290	3.5289	-1.5837	26.09	0.58	-1.500			
0.5162	33039.24	3.5260	3.5261	-1.5989	26.09	0.58	-1.500	0.367	0.541	
0.5211	33349.64	3.5230	3.5230	-1.6064	26.10	0.59	-1.500			
0.5259	33658.14	3.5200	3.5200	-1.6156	26.11	0.60	-1.500			
0.5308	33968.90	3.5170	3.5170	-1.6229	26.13	0.62	-1.500			
0.5356	34278.38	3.5140	3.5140	-1.6380	26.14	0.63	-1.500			
0.5406	34596.38	3.5110	3.5109	-1.6517	26.15	0.64	-1.500			
0.5455	34914.65	3.5080	3.5080	-1.6588	26.16	0.65	-1.500			
0.5505	35234.99	3.5050	3.5051	-1.6683	26.17	0.66	-1.500			
0.5556	35558.20	3.5020	3.5020	-1.6741	26.19	0.68	-1.500			
0.5606	35879.07	3.4990	3.4990	-1.6760	26.20	0.69	-1.500			
0.5656	36201.52	3.4960	3.4960	-1.6742	26.21	0.70	-1.500			
0.5706	36521.23	3.4930	3.4930	-1.6693	26.22	0.71	-1.500			
0.5757	36844.57	3.4900	3.4900	-1.6820	26.23	0.72	-1.500			
0.5807	37167.86	3.4870	3.4870	-1.6770	26.25	0.74	-1.500			
0.5858	37490.71	3.4840	3.4839	-1.6720	26.26	0.75	-1.500			
0.5908	37812.27	3.4810	3.4811	-1.6675	26.27	0.76	-1.500			
0.5958	38131.63	3.4780	3.4780	-1.6551	26.28	0.77	-1.500			
0.6008	38449.49	3.4750	3.4749	-1.6429	26.30	0.79	-1.500			
0.6057	38763.46	3.4720	3.4720	-1.6253	26.31	0.80	-1.500			
0.6106	39075.52	3.4690	3.4690	-1.6078	26.33	0.82	-1.500			
0.6153	39381.33	3.4660	3.4660	-1.5897	26.35	0.84	-1.500			
0.6201	39684.44	3.4630	3.4632	-1.5678	26.36	0.85	-1.500			
0.6247	39981.57	3.4600	3.4599	-1.5468	26.38	0.87	-1.500			
0.6293	40275.89	3.4570	3.4570	-1.5346	26.39	0.88	-1.500			
0.6339	40568.20	3.4540	3.4540	-1.5177	26.41	0.90	-1.500			
0.6385	40862.12	3.4510	3.4509	-1.5061	26.43	0.92	-1.500			
0.6430	41149.45	3.4480	3.4480	-1.4816	26.44	0.93	-1.500			
0.6473	41430.40	3.4450	3.4450	-1.4597	26.46	0.95	-1.500			
0.6517	41709.89	3.4420	3.4420	-1.4429	26.48	0.97	-1.500			
0.6560	41983.12	3.4390	3.4390	-1.4214	26.49	0.98	-1.500			
0.6602	42253.11	3.4360	3.4360	-1.4034	26.51	1.00	-1.500			
0.6644	42522.01	3.4330	3.4331	-1.3930	26.53	1.02	-1.500			
0.6686	42790.10	3.4300	3.4300	-1.3799	26.55	1.04	-1.500			
0.6727	43053.32	3.4270	3.4270	-1.3615	26.56	1.05	-1.500			
0.6768	43312.86	3.4240	3.4240	-1.3450	26.58	1.07	-1.500			
0.6808	43570.97	3.4210	3.4210	-1.3268	26.61	1.10	-1.500			
0.6848	43825.12	3.4180	3.4179	-1.3039	26.63	1.12	-1.500			
0.6887	44074.69	3.4150	3.4150	-1.2771	26.65	1.14	-1.500			
0.6925	44317.55	3.4120	3.4119	-1.2466	26.66	1.15	-1.500			
0.6961	44553.21	3.4090	3.4090	-1.2228	26.68	1.17	-1.500			
0.6997	44783.96	3.4060	3.4060	-1.1959	26.70	1.19	-1.500			
0.7033	45010.39	3.4030	3.4029	-1.1699	26.72	1.21	-1.500			
0.7068	45235.81	3.4000	3.3999	-1.1396	26.73	1.22	-1.500			
0.7102	45452.78	3.3970	3.3971	-1.1122	26.75	1.24	-1.500			
0.7135	45663.86	3.3940	3.3940	-1.0796	26.77	1.26	-1.500			
0.7167	45868.41	3.3910	3.3909	-1.0465	26.79	1.28	-1.500			
0.7198	46064.94	3.3880	3.3880	-1.0103	26.80	1.29	-1.500			
0.7227	46254.67	3.3850	3.3850	-0.9764	26.81	1.30	-1.500			
0.7256	46438.85	3.3820	3.3820	-0.9484	26.83	1.32	-1.500			
0.7284	46617.74	3.3790	3.3790	-0.9213	26.85	1.34	-1.500			
0.7311	46790.78	3.3760	3.3760	-0.8904	26.86	1.35	-1.500			
0.7337	46959.87	3.3730	3.3730	-0.8643	26.87	1.36	-1.500			
0.7363	47123.51	3.3700	3.3700	-0.8377	26.89	1.38	-1.500			
0.7388	47282.17	3.3670	3.3671	-0.8153	26.90	1.39	-1.500			
0.7412	47436.35	3.3640	3.3639	-0.7900	26.92	1.41	-1.500			
0.7435	47584.86	3.3610	3.3610	-0.7628	26.93	1.42	-1.500			
0.7458	47729.12	3.3580	3.3581	-0.7399	26.94	1.43	-1.500			
0.7480	47868.99	3.3550	3.3549	-0.7176	26.95	1.44	-1.500			
0.7501	48003.90	3.3520	3.3519	-0.6939	26.96	1.45	-1.500			
0.7521	48132.78	3.3490	3.3491	-0.6701	26.97	1.46	-1.500			
0.7541	48260.63	3.3460	3.3460	-0.6554	26.98	1.47	-1.500			
0.7560	48384.09	3.3430	3.3430	-0.6402	26.99	1.48	-1.500			
0.7579	48505.49	3.3400	3.3400	-0.6269	27.00	1.49	-1.500			
0.7598	48624.29	3.3370	3.3370	-0.6105	27.01	1.50	-1.500			
0.7616	48740.88	3.3340	3.3340	-0.5956	27.02	1.51	-1.500			
0.7633	48854.30	3.3310	3.3310	-0.5794	27.03	1.52	-1.500			
0.7651	48964.39	3.3280	3.3280	-0.5594	27.04	1.53	-1.500			
0.7667	49069.91	3.3250	3.3250	-0.5419	27.05	1.54	-1.500			
0.7683	49170.93	3.3220	3.3220	-0.5260	27.05	1.54	-1.500			
0.7698	49268.62	3.3190	3.3191	-0.5141	27.06	1.55	-1.500			
0.7714	49366.69	3.3160	3.3159	-0.5052	27.07	1.56	-1.500			
0.7729	49462.99	3.3130	3.3130	-0.4947	27.08	1.57	-1.500			
0.7743	49557.58	3.3100	3.3100	-0.4836	27.08	1.57	-1.500			
0.7758	49650.24	3.3070	3.3071	-0.4702	27.09	1.58	-1.500			
0.7772	49739.23	3.3040	3.3040	-0.4579	27.10	1.59	-1.500			
0.7785	49825.42	3.3010	3.3010	-0.4466	27.11	1.60	-1.500			
0.7798	49908.71	3.2980	3.2980	-0.4334	27.12	1.61	-1.500			
0.7811	49991.58	3.2950	3.2949	-0.4232	27.12	1.61	-1.500			
0.7824	50071.87	3.2920	3.2921	-0.4152	27.13	1.62	-1.500			
0.7836	50150.31	3.2890	3.2890	-0.4079	27.14	1.63	-1.500			
0.7848	50228.58	3.2860	3.2859	-0.4006	27.14	1.63	-1.500			
0.7860	50304.50	3.2830	3.2829	-0.3898	27.15	1.64	-1.500			
0.7872	50378.10	3.2800	3.2801	-0.3811	27.16	1.65	-1.500			
0.7883	50451.30	3.2770	3.2770	-0.3706	27.17	1.66	-1.500			
0.7894	50521.85	3.2740	3.2739	-0.3615	27.17	1.66	-1.500			
0.7904	50588.65	3.2710	3.2710	-0.3529	27.18	1.67	-1.500			
0.7915	50654.40	3.2680	3.2680	-0.3459	27.19	1.68	-1.500			
0.7925	50720.91	3.2650	3.2649	-0.3398	27.19	1.68	-1.500			
0.7935	50785.85	3.2620	3.2620	-0.3338	27.20	1.69	-1.500			
0.7945	50849.98	3.2590	3.2591	-0.3263	27.21	1.70	-1.500			
0.7955	50912.54	3.2560	3.2560	-0.3197	27.21	1.70	-1.500			
0.7964	50972.14	3.2530	3.2530	-0.3121	27.22	1.71	-1.500			
0.7974	51030.77	3.2500	3.2500	-0.3062	27.23	1.72	-1.500			
0.7983	51088.48	3.2470	3.2469	-0.3002	27.24	1.73	-1.500			
0.7992	51146.12	3.2440	3.2440	-0.2966	27.24	1.73	-1.500			
0.8000	51202.87	3.2410	3.2410	-0.2911	27.25	1.74	-1.500			
0.8009	51258.54	3.2380	3.2379	-0.2854	27.26	1.75	-1.500			
0.8018	51312.57	3.2350	3.2351	-0.2799	27.26	1.75	-1.500			
0.8026	51365.64	3.2320	3.2319	-0.2742	27.27	1.76	-1.500			
0.8034	51417.64	3.2290	3.2290	-0.2695	27.27	1.76	-1.500			
0.8042	51469.06	3.2260	3.2261	-0.2662	27.28	1.77	-1.500			
0.8050	51519.52	3.2230	3.2229	-0.2620	27.29	1.78	-1.500			
0.8058	51569.70	3.2200	3.2200	-0.2579	27.29	1.78	-1.500			
0.8065	51618.80	3.2170	3.2170	-0.2536	27.30	1.79	-1.500			
0.8073	51666.69	3.2140	3.2141	-0.2497	27.31	1.80	-1.500			
0.8080	51714.62	3.2110	3.2110	-0.2461	27.31	1.80	-1.500			
0.8088	51761.06	3.2080	3.2080	-0.2425	27.32	1.81	-1.500			
0.8095	51806.98	3.2050	3.2050	-0.2388	27.32	1.81	-1.500			
0.8102	51852.70	3.2020	3.2021	-0.2364	27.33	1.82	-1.500			
0.8109	51897.93	3.1990	3.1989	-0.2336	27.34	1.83	-1.500			
0.8116	51942.96	3.1960	3.1960	-0.2299	27.34	1.83	-1.500			
0.8123	51986.91	3.1930	3.1930	-0.2262	27.35	1.84	-1.500			
0.8130	52029.72	3.1900	3.1901	-0.2226	27.35	1.84	-1.500			
0.8136	52072.11	3.1870	3.1870	-0.2206	27.36	1.85	-1.500			
0.8143	52113.63	3.1840	3.1839	-0.2168	27.36	1.85	-1.500			
0.8149	52155.08	3.1810	3.1810	-0.2150	27.37	1.86	-1.500			
0.8156	52196.05	3.1780	3.1780	-0.2123	27.38	1.87	-1.500			
0.8162	52236.74	3.1750	3.1751	-0.2101	27.38	1.87	-1.500			
0.8168	52277.43	3.1720	3.1720	-0.2084	27.39	1.88	-1.500			
0.8175	52317.10	3.1690	3.1690	-0.2048	27.39	1.88	-1.500			
0.8181	52355.85	3.1660	3.1660	-0.2031	27.40	1.89	-1.500			
0.8187	52394.40	3.1630	3.1630	-0.2000	27.40	1.89	-1.500			
0.8193	52432.59	3.1600	3.1599	-0.1981	27.41	1.90	-1.500			
0.8198	52470.36	3.1570	3.1570	-0.1964	27.41	1.90	-1.500			
0.8204	52507.92	3.1540	3.1540	-0.1947	27.41	1.90	-1.500			
0.8210	52545.11	3.1510	3.1510	-0.1930	27.42	1.91	-1.500			
0.8216	52582.18	3.1480	3.1479	-0.1912	27.43	1.92	-1.500			
0.8222	52618.45	3.1450	3.1451	-0.1886	27.43	1.92	-1.500			
0.8227	52654.52	3.1420	3.1420	-0.1872	27.44	1.93	-1.500			
0.8233	52690.66	3.1390	3.1390	-0.1856	27.44	1.93	-1.500			
0.8238	52725.82	3.1360	3.1360	-0.1841	27.45	1.94	-1.500			
0.8244	52761.01	3.1330	3.1329	-0.1820	27.46	1.95	-1.500			
0.8249	52795.81	3.1300	3.1301	-0.1805	27.46	1.95	-1.500			
0.8255	52830.35	3.1270	3.1270	-0.1790	27.47	1.96	-1.500			
0.8260	52864.72	3.1240	3.1241	-0.1773	27.47	1.96	-1.500			
0.8265	52898.67	3.1210	3.1210	-0.1754	27.48	1.97	-1.500			
0.8271	52932.13	3.1180	3.1180	-0.1732	27.48	1.97	-1.500			
0.8276	52965.04	3.1150	3.1150	-0.1723	27.49	1.98	-1.500			
0.8281	52997.47	3.1120	3.1121	-0.1713	27.49	1.98	-1.500			
0.8286	53030.78	3.1090	3.1088	-0.1701	27.50	1.99	-1.500			
0.8291	53063.34	3.1060	3.1060	-0.1688	27.51	2.00	-1.500			
0.8296	53095.64	3.1030	3.1031	-0.1675	27.51	2.00	-1.500			
0.8301	53127.80	3.1000	3.1001	-0.1666	27.52	2.01	-1.500			
0.8306	53159.73	3.0970	3.0969	-0.1654	27.52	2.01	-1.500			
0.8311	53191.37	3.0940	3.0939	-0.1635	27.53	2.02	-1.500			
0.8316	53222.30	3.0910	3.0911	-0.1615	27.54	2.03	-1.500			
0.8321	53253.04	3.0880	3.0881	-0.1603	27.54	2.03	-1.500			
0.8326	53284.02	3.0850	3.0850	-0.1599	27.55	2.04	-1.500			
0.8330	53314.37	3.0820	3.0820	-0.1582	27.55	2.04	-1.500			
0.8335	53344.65	3.0790	3.0789	-0.1572	27.56	2.05	-1.500			
0.8340	53374.48	3.0760	3.0760	-0.1565	27.57	2.06	-1.500			
0.8344	53404.57	3.0730	3.0730	-0.1558	27.57	2.06	-1.500			
0.8349	53434.57	3.0700	3.0699	-0.1555	27.58	2.07	-1.500			
0.8354	53464.33	3.0670	3.0671	-0.1546	27.58	2.07	-1.500			
0.8358	53493.97	3.0640	3.0640	-0.1530	27.59	2.08	-1.500			
0.8363	53523.42	3.0610	3.0609	-0.1518	27.59	2.08	-1.500			
0.8368	53552.52	3.0580	3.0580	-0.1502	27.60	2.09	-1.500			
0.8372	53581.02	3.0550	3.0551	-0.1496	27.61	2.10	-1.500			
0.8376	53609.41	3.0520	3.0520	-0.1485	27.61	2.10	-1.500			
0.8381	53637.95	3.0490	3.0491	-0.1474	27.62	2.11	-1.500			
0.8385	53666.08	3.0460	3.0459	-0.1463	27.62	2.11	-1.500			
0.8390	53694.14	3.0430	3.0431	-0.1453	27.63	2.12	-1.500			
0.8394	53721.98	3.0400	3.0401	-0.1452	27.63	2.12	-1.500			
0.8398	53749.85	3.0370	3.0370	-0.1442	27.64	2.13	-1.500			
0.8403	53777.44	3.0340	3.0339	-0.1432	27.64	2.13	-1.500			
0.8407	53804.66	3.0310	3.0309	-0.1417	27.65	2.14	-1.500			
0.8411	53831.80	3.0280	3.0281	-0.1414	27.66	2.15	-1.500			
0.8415	53859.09	3.0250	3.0250	-0.1407	27.66	2.15	-1.500			
0.8420	53885.98	3.0220	3.0219	-0.1394	27.67	2.16	-1.500			
0.8424	53912.56	3.0190	3.0189	-0.1388	27.67	2.16	-1.500			
0.8428	53938.83	3.0160	3.0161	-0.1380	27.68	2.17	-1.500			
0.8432	53965.50	3.0130	3.0130	-0.1378	27.68	2.17	-1.500			
0.8436	53991.89	3.0100	3.0099	-0.1372	27.69	2.18	-1.500			
0.8440	54018.24	3.0070	3.0070	-0.1364	27.69	2.18	-1.500			
0.8444	54044.24	3.0040	3.0040	-0.1364	27.70	2.19	-1.500			
0.8448	54070.27	3.0010	3.0010	-0.1327	27.70	2.19	-1.500			
