Ah_balance (normalized)	Ah_balance (mAh)	Voltage - fit (V)	Voltage -  interpolate (V)	dQ/dV (1/V)	Temperature (°C)	Temperature - diff (°C)	Current (C)	R_DC 0ms (mOhm)	R_DC 50ms (mOhm)	R_DC 50 ms PEC (mOhm)
0.1765	11298.43	3.9280	3.9277	-0.0967	25.78	0.00	-1.500			
0.1769	11319.79	3.9250	3.9248	-0.1226	25.78	0.00	-1.500			
0.1773	11345.66	3.9220	3.9220	-0.1469	25.78	-0.00	-1.500			
0.1778	11376.19	3.9190	3.9189	-0.1712	25.78	-0.00	-1.500			
0.1783	11411.50	3.9160	3.9160	-0.1943	25.78	-0.00	-1.500			
0.1789	11451.71	3.9130	3.9130	-0.2167	25.78	-0.00	-1.500			
0.1796	11495.34	3.9100	3.9100	-0.2379	25.78	-0.00	-1.500			
0.1804	11543.63	3.9070	3.9071	-0.2572	25.78	-0.00	-1.500			
0.1812	11594.81	3.9040	3.9040	-0.2788	25.78	-0.00	-1.500			
0.1820	11650.30	3.9010	3.9010	-0.2988	25.78	-0.00	-1.500			
0.1830	11709.79	3.8980	3.8980	-0.3177	25.78	-0.00	-1.500			
0.1839	11772.69	3.8950	3.8950	-0.3379	25.77	-0.01	-1.500			
0.1850	11839.62	3.8920	3.8920	-0.3562	25.77	-0.01	-1.500			
0.1861	11909.97	3.8890	3.8891	-0.3740	25.77	-0.01	-1.500			
0.1872	11983.59	3.8860	3.8860	-0.3924	25.77	-0.01	-1.500			
0.1884	12060.15	3.8830	3.8829	-0.4081	25.77	-0.01	-1.500			
0.1897	12140.07	3.8800	3.8801	-0.4261	25.77	-0.01	-1.500			
0.1910	12223.75	3.8770	3.8769	-0.4427	25.77	-0.01	-1.500			
0.1924	12310.47	3.8740	3.8741	-0.4594	25.77	-0.01	-1.500			
0.1938	12400.92	3.8710	3.8710	-0.4755	25.77	-0.01	-1.500			
0.1952	12493.81	3.8680	3.8680	-0.4898	25.77	-0.01	-1.500			
0.1967	12589.45	3.8650	3.8650	-0.5036	25.76	-0.02	-1.500			
0.1983	12688.28	3.8620	3.8620	-0.5148	25.76	-0.02	-1.500			
0.1998	12788.17	3.8590	3.8589	-0.5242	25.76	-0.02	-1.500			
0.2014	12890.54	3.8560	3.8560	-0.5327	25.76	-0.02	-1.500			
0.2030	12993.46	3.8530	3.8530	-0.5392	25.76	-0.02	-1.500			
0.2047	13097.72	3.8500	3.8500	-0.5469	25.76	-0.02	-1.500			
0.2063	13202.66	3.8470	3.8470	-0.5557	25.76	-0.02	-1.500			
0.2080	13309.72	3.8440	3.8440	-0.5621	25.76	-0.02	-1.500			
0.2097	13419.62	3.8410	3.8409	-0.5703	25.77	-0.01	-1.500			
0.2114	13529.30	3.8380	3.8380	-0.5763	25.77	-0.01	-1.500			
0.2132	13641.92	3.8350	3.8351	-0.5818	25.77	-0.01	-1.500			
0.2149	13753.69	3.8320	3.8320	-0.5847	25.77	-0.01	-1.500			
0.2167	13866.50	3.8290	3.8290	-0.5857	25.77	-0.01	-1.500			
0.2184	13978.78	3.8260	3.8261	-0.5878	25.77	-0.01	-1.500			
0.2202	14091.60	3.8230	3.8230	-0.5943	25.77	-0.01	-1.500			
0.2220	14205.90	3.8200	3.8200	-0.5976	25.78	-0.00	-1.500			
0.2238	14320.46	3.8170	3.8170	-0.6007	25.78	-0.00	-1.500			
0.2256	14436.77	3.8140	3.8140	-0.6070	25.78	-0.00	-1.500			
0.2274	14554.88	3.8110	3.8110	-0.6093	25.78	0.00	-1.500			
0.2293	14672.33	3.8080	3.8080	-0.6140	25.78	0.00	-1.500			
0.2311	14790.01	3.8050	3.8050	-0.6156	25.79	0.01	-1.500			
0.2329	14907.56	3.8020	3.8020	-0.6213	25.79	0.01	-1.500			
0.2348	15027.91	3.7990	3.7990	-0.6241	25.80	0.02	-1.500			
0.2367	15147.80	3.7960	3.7960	-0.6282	25.80	0.02	-1.500			
0.2386	15268.80	3.7930	3.7930	-0.6324	25.80	0.02	-1.500			
0.2405	15390.96	3.7900	3.7899	-0.6367	25.81	0.03	-1.500			
0.2424	15513.65	3.7870	3.7870	-0.6359	25.81	0.03	-1.500			
0.2443	15636.32	3.7840	3.7840	-0.6387	25.81	0.03	-1.500			
0.2462	15758.50	3.7810	3.7811	-0.6419	25.82	0.04	-1.500			
0.2482	15883.00	3.7780	3.7779	-0.6456	25.82	0.04	-1.500			
0.2501	16006.29	3.7750	3.7750	-0.6470	25.83	0.05	-1.500			
0.2520	16130.51	3.7720	3.7721	-0.6507	25.83	0.05	-1.500			
0.2540	16255.53	3.7690	3.7690	-0.6561	25.83	0.05	-1.500			
0.2560	16382.07	3.7660	3.7660	-0.6621	25.84	0.06	-1.500			
0.2580	16508.91	3.7630	3.7629	-0.6662	25.84	0.06	-1.500			
0.2600	16638.35	3.7600	3.7601	-0.6715	25.85	0.07	-1.500			
0.2620	16768.22	3.7570	3.7570	-0.6758	25.85	0.07	-1.500			
0.2640	16897.75	3.7540	3.7541	-0.6815	25.85	0.07	-1.500			
0.2661	17029.33	3.7510	3.7510	-0.6856	25.86	0.08	-1.500			
0.2681	17160.55	3.7480	3.7479	-0.6873	25.86	0.08	-1.500			
0.2702	17292.66	3.7450	3.7449	-0.6947	25.87	0.09	-1.500			
0.2723	17427.00	3.7420	3.7422	-0.6980	25.87	0.09	-1.500			
0.2744	17561.46	3.7390	3.7389	-0.7031	25.88	0.10	-1.500			
0.2765	17696.90	3.7360	3.7360	-0.7097	25.88	0.10	-1.500			
0.2786	17833.52	3.7330	3.7330	-0.7145	25.88	0.10	-1.500			
0.2808	17971.99	3.7300	3.7299	-0.7179	25.89	0.11	-1.500			
0.2830	18109.91	3.7270	3.7270	-0.7223	25.89	0.11	-1.500			
0.2851	18248.02	3.7240	3.7241	-0.7253	25.90	0.12	-1.500			
0.2873	18388.37	3.7210	3.7210	-0.7349	25.91	0.13	-1.500			
0.2895	18529.10	3.7180	3.7180	-0.7393	25.91	0.13	-1.500			
0.2917	18670.54	3.7150	3.7150	-0.7445	25.92	0.14	-1.500			
0.2940	18814.22	3.7120	3.7120	-0.7578	25.92	0.14	-1.500			
0.2963	18961.99	3.7090	3.7090	-0.7651	25.93	0.15	-1.500			
0.2986	19109.15	3.7060	3.7059	-0.7697	25.93	0.15	-1.500			
0.3009	19257.72	3.7030	3.7031	-0.7770	25.94	0.16	-1.500			
0.3032	19407.65	3.7000	3.6999	-0.7809	25.94	0.16	-1.500			
0.3056	19557.76	3.6970	3.6970	-0.7886	25.95	0.17	-1.500			
0.3080	19709.56	3.6940	3.6940	-0.7945	25.95	0.17	-1.500			
0.3103	19861.56	3.6910	3.6910	-0.7983	25.95	0.17	-1.500			
0.3128	20016.84	3.6880	3.6879	-0.8077	25.96	0.18	-1.500			
0.3152	20172.51	3.6850	3.6851	-0.8117	25.96	0.18	-1.500			
0.3176	20328.47	3.6820	3.6819	-0.8184	25.97	0.19	-1.500			
0.3201	20486.25	3.6790	3.6790	-0.8272	25.97	0.19	-1.500			
0.3226	20645.84	3.6760	3.6759	-0.8304	25.97	0.19	-1.500			
0.3251	20805.29	3.6730	3.6730	-0.8401	25.98	0.20	-1.500			
0.3276	20967.78	3.6700	3.6700	-0.8475	25.98	0.20	-1.500			
0.3302	21130.52	3.6670	3.6670	-0.8568	25.99	0.21	-1.500			
0.3327	21295.90	3.6640	3.6640	-0.8700	25.99	0.21	-1.500			
0.3354	21463.60	3.6610	3.6610	-0.8760	26.00	0.22	-1.500			
0.3380	21633.42	3.6580	3.6580	-0.8880	26.00	0.22	-1.500			
0.3407	21805.87	3.6550	3.6551	-0.8956	26.01	0.23	-1.500			
0.3434	21977.95	3.6520	3.6520	-0.9046	26.01	0.23	-1.500			
0.3461	22153.10	3.6490	3.6490	-0.9128	26.02	0.24	-1.500			
0.3489	22328.10	3.6460	3.6460	-0.9200	26.02	0.24	-1.500			
0.3517	22506.04	3.6430	3.6430	-0.9272	26.03	0.25	-1.500			
0.3545	22685.55	3.6400	3.6399	-0.9402	26.04	0.26	-1.500			
0.3573	22865.80	3.6370	3.6370	-0.9464	26.04	0.26	-1.500			
0.3601	23048.91	3.6340	3.6340	-0.9565	26.05	0.27	-1.500			
0.3630	23233.11	3.6310	3.6309	-0.9685	26.05	0.27	-1.500			
0.3659	23419.19	3.6280	3.6280	-0.9847	26.06	0.28	-1.500			
0.3689	23608.83	3.6250	3.6250	-0.9956	26.06	0.28	-1.500			
0.3719	23803.04	3.6220	3.6220	-1.0079	26.07	0.29	-1.500			
0.3750	23998.14	3.6190	3.6190	-1.0178	26.08	0.30	-1.500			
0.3781	24195.36	3.6160	3.6160	-1.0303	26.08	0.30	-1.500			
0.3811	24393.10	3.6130	3.6131	-1.0390	26.09	0.31	-1.500			
0.3843	24592.36	3.6100	3.6100	-1.0494	26.09	0.31	-1.500			
0.3874	24793.04	3.6070	3.6070	-1.0642	26.10	0.32	-1.500			
0.3906	24999.66	3.6040	3.6040	-1.0841	26.10	0.32	-1.500			
0.3939	25210.83	3.6010	3.6010	-1.1015	26.11	0.33	-1.500			
0.3972	25423.21	3.5980	3.5980	-1.1176	26.11	0.33	-1.500			
0.4006	25640.63	3.5950	3.5950	-1.1324	26.12	0.34	-1.500			
0.4041	25860.02	3.5920	3.5920	-1.1463	26.12	0.34	-1.500			
0.4075	26080.78	3.5890	3.5890	-1.1584	26.13	0.35	-1.500			
0.4110	26304.78	3.5860	3.5861	-1.1662	26.13	0.35	-1.500			
0.4145	26528.29	3.5830	3.5830	-1.1883	26.14	0.36	-1.500			
0.4181	26757.95	3.5800	3.5800	-1.2052	26.15	0.37	-1.500			
0.4217	26990.84	3.5770	3.5769	-1.2186	26.15	0.37	-1.500			
0.4254	27226.80	3.5740	3.5739	-1.2376	26.16	0.38	-1.500			
0.4292	27465.82	3.5710	3.5710	-1.2597	26.17	0.39	-1.500			
0.4330	27709.89	3.5680	3.5680	-1.2797	26.17	0.39	-1.500			
0.4368	27957.05	3.5650	3.5650	-1.3043	26.18	0.40	-1.500			
0.4407	28206.15	3.5620	3.5620	-1.3214	26.19	0.41	-1.500			
0.4448	28466.80	3.5590	3.5590	-1.3444	26.20	0.42	-1.500			
0.4489	28727.83	3.5560	3.5560	-1.3599	26.21	0.43	-1.500			
0.4530	28989.94	3.5530	3.5531	-1.3779	26.22	0.44	-1.500			
0.4571	29256.17	3.5500	3.5499	-1.3881	26.23	0.45	-1.500			
0.4613	29521.22	3.5470	3.5470	-1.4151	26.24	0.46	-1.500			
0.4656	29796.40	3.5440	3.5441	-1.4301	26.25	0.47	-1.500			
0.4699	30074.12	3.5410	3.5409	-1.4504	26.26	0.48	-1.500			
0.4743	30355.19	3.5380	3.5380	-1.4696	26.27	0.49	-1.500			
0.4787	30639.34	3.5350	3.5351	-1.4835	26.28	0.50	-1.500			
0.4832	30926.20	3.5320	3.5319	-1.5084	26.30	0.52	-1.500			
0.4878	31220.62	3.5290	3.5290	-1.5249	26.31	0.53	-1.500			
0.4924	31513.00	3.5260	3.5259	-1.5307	26.32	0.54	-1.500			
0.4970	31810.77	3.5230	3.5233	-1.5481	26.33	0.55	-1.500	0.371	0.548	
0.5017	32109.57	3.5200	3.5200	-1.5563	26.34	0.56	-1.500			
0.5064	32407.40	3.5170	3.5169	-1.5707	26.35	0.57	-1.500			
0.5110	32705.77	3.5140	3.5140	-1.5728	26.37	0.59	-1.500			
0.5159	33015.45	3.5110	3.5110	-1.5949	26.38	0.60	-1.500			
0.5207	33325.03	3.5080	3.5081	-1.6116	26.39	0.61	-1.500			
0.5256	33635.66	3.5050	3.5050	-1.6153	26.41	0.63	-1.500			
0.5304	33945.73	3.5020	3.5020	-1.6208	26.42	0.64	-1.500			
0.5353	34256.40	3.4990	3.4990	-1.6259	26.44	0.66	-1.500			
0.5401	34568.29	3.4960	3.4960	-1.6301	26.45	0.67	-1.500			
0.5451	34883.66	3.4930	3.4930	-1.6371	26.47	0.69	-1.500			
0.5500	35199.57	3.4900	3.4900	-1.6388	26.48	0.70	-1.500			
0.5549	35513.24	3.4870	3.4870	-1.6344	26.50	0.72	-1.500			
0.5598	35826.21	3.4840	3.4840	-1.6405	26.52	0.74	-1.500			
0.5648	36145.13	3.4810	3.4809	-1.6206	26.54	0.76	-1.500			
0.5696	36456.16	3.4780	3.4780	-1.6062	26.55	0.77	-1.500			
0.5744	36764.62	3.4750	3.4750	-1.5957	26.57	0.79	-1.500			
0.5792	37068.92	3.4720	3.4720	-1.5770	26.59	0.81	-1.500			
0.5839	37368.86	3.4690	3.4689	-1.5645	26.60	0.82	-1.500			
0.5885	37663.70	3.4660	3.4660	-1.5518	26.62	0.84	-1.500			
0.5931	37960.05	3.4630	3.4630	-1.5403	26.63	0.85	-1.500			
0.5978	38261.46	3.4600	3.4599	-1.5318	26.65	0.87	-1.500			
0.6024	38553.07	3.4570	3.4571	-1.5196	26.66	0.88	-1.500			
0.6069	38843.97	3.4540	3.4540	-1.5023	26.68	0.90	-1.500			
0.6114	39131.30	3.4510	3.4510	-1.4850	26.70	0.92	-1.500			
0.6158	39413.92	3.4480	3.4480	-1.4637	26.72	0.94	-1.500			
0.6202	39692.80	3.4450	3.4451	-1.4472	26.74	0.96	-1.500			
0.6245	39969.42	3.4420	3.4420	-1.4272	26.76	0.98	-1.500			
0.6288	40244.15	3.4390	3.4389	-1.4099	26.78	1.00	-1.500			
0.6330	40509.22	3.4360	3.4361	-1.3857	26.80	1.02	-1.500			
0.6371	40774.21	3.4330	3.4331	-1.3710	26.82	1.04	-1.500			
0.6412	41036.33	3.4300	3.4299	-1.3528	26.84	1.06	-1.500			
0.6452	41294.68	3.4270	3.4269	-1.3353	26.86	1.08	-1.500			
0.6492	41548.27	3.4240	3.4240	-1.3138	26.87	1.09	-1.500			
0.6531	41799.36	3.4210	3.4210	-1.2946	26.89	1.11	-1.500			
0.6570	42047.78	3.4180	3.4180	-1.2716	26.91	1.13	-1.500			
0.6608	42289.49	3.4150	3.4150	-1.2426	26.93	1.15	-1.500			
0.6644	42523.82	3.4120	3.4121	-1.2190	26.95	1.17	-1.500			
0.6681	42758.76	3.4090	3.4090	-1.1953	26.96	1.18	-1.500			
0.6716	42985.25	3.4060	3.4059	-1.1590	26.98	1.20	-1.500			
0.6751	43204.61	3.4030	3.4030	-1.1280	27.00	1.22	-1.500			
0.6784	43418.42	3.4000	3.4001	-1.0959	27.02	1.24	-1.500			
0.6816	43624.58	3.3970	3.3970	-1.0700	27.04	1.26	-1.500			
0.6848	43825.61	3.3940	3.3940	-1.0413	27.05	1.27	-1.500			
0.6878	44021.97	3.3910	3.3910	-1.0100	27.07	1.29	-1.500			
0.6909	44215.41	3.3880	3.3880	-0.9877	27.08	1.30	-1.500			
0.6938	44405.54	3.3850	3.3850	-0.9649	27.10	1.32	-1.500			
0.6967	44587.41	3.3820	3.3820	-0.9345	27.11	1.33	-1.500			
0.6994	44764.13	3.3790	3.3789	-0.9053	27.12	1.34	-1.500			
0.7021	44933.71	3.3760	3.3762	-0.8756	27.13	1.35	-1.500			
0.7047	45098.87	3.3730	3.3730	-0.8496	27.15	1.37	-1.500			
0.7072	45258.49	3.3700	3.3700	-0.8299	27.16	1.38	-1.500			
0.7096	45414.20	3.3670	3.3670	-0.8077	27.17	1.39	-1.500			
0.7120	45568.70	3.3640	3.3640	-0.7911	27.18	1.40	-1.500			
0.7143	45717.79	3.3610	3.3610	-0.7697	27.20	1.42	-1.500			
0.7166	45865.34	3.3580	3.3580	-0.7491	27.21	1.43	-1.500			
0.7189	46007.25	3.3550	3.3550	-0.7277	27.22	1.44	-1.500			
0.7210	46144.44	3.3520	3.3520	-0.7085	27.23	1.45	-1.500			
0.7231	46277.51	3.3490	3.3489	-0.6895	27.24	1.46	-1.500			
0.7251	46408.66	3.3460	3.3460	-0.6708	27.25	1.47	-1.500			
0.7271	46535.54	3.3430	3.3431	-0.6528	27.26	1.48	-1.500			
0.7290	46659.16	3.3400	3.3400	-0.6359	27.27	1.49	-1.500			
0.7309	46779.69	3.3370	3.3370	-0.6200	27.28	1.50	-1.500			
0.7327	46896.00	3.3340	3.3339	-0.6001	27.29	1.51	-1.500			
0.7345	47010.03	3.3310	3.3310	-0.5857	27.30	1.52	-1.500			
0.7362	47119.85	3.3280	3.3281	-0.5716	27.31	1.53	-1.500			
0.7379	47228.59	3.3250	3.3250	-0.5592	27.32	1.54	-1.500			
0.7396	47334.54	3.3220	3.3220	-0.5431	27.33	1.55	-1.500			
0.7412	47437.27	3.3190	3.3190	-0.5278	27.34	1.56	-1.500			
0.7428	47536.98	3.3160	3.3160	-0.5161	27.35	1.57	-1.500			
0.7443	47635.54	3.3130	3.3130	-0.5038	27.35	1.57	-1.500			
0.7458	47730.17	3.3100	3.3100	-0.4914	27.36	1.58	-1.500			
0.7472	47823.60	3.3070	3.3070	-0.4755	27.37	1.59	-1.500			
0.7487	47914.12	3.3040	3.3040	-0.4645	27.37	1.59	-1.500			
0.7500	48002.63	3.3010	3.3010	-0.4512	27.38	1.60	-1.500			
0.7514	48087.53	3.2980	3.2981	-0.4400	27.39	1.61	-1.500			
0.7527	48169.88	3.2950	3.2948	-0.4259	27.40	1.62	-1.500			
0.7539	48250.15	3.2920	3.2920	-0.4167	27.40	1.62	-1.500			
0.7551	48328.60	3.2890	3.2891	-0.4075	27.41	1.63	-1.500			
0.7564	48406.72	3.2860	3.2860	-0.3991	27.42	1.64	-1.500			
0.7575	48482.42	3.2830	3.2830	-0.3893	27.43	1.65	-1.500			
0.7587	48556.42	3.2800	3.2800	-0.3815	27.44	1.66	-1.500			
0.7598	48628.60	3.2770	3.2770	-0.3711	27.44	1.66	-1.500			
0.7609	48699.37	3.2740	3.2740	-0.3629	27.45	1.67	-1.500			
0.7620	48767.88	3.2710	3.2709	-0.3528	27.46	1.68	-1.500			
0.7630	48834.76	3.2680	3.2680	-0.3452	27.47	1.69	-1.500			
0.7641	48900.41	3.2650	3.2650	-0.3367	27.47	1.69	-1.500			
0.7651	48963.52	3.2620	3.2620	-0.3293	27.48	1.70	-1.500			
0.7660	49026.10	3.2590	3.2590	-0.3226	27.49	1.71	-1.500			
0.7670	49087.20	3.2560	3.2560	-0.3162	27.49	1.71	-1.500			
0.7679	49147.15	3.2530	3.2530	-0.3089	27.50	1.72	-1.500			
0.7688	49205.75	3.2500	3.2501	-0.3046	27.51	1.73	-1.500			
0.7697	49263.58	3.2470	3.2469	-0.2977	27.52	1.74	-1.500			
0.7706	49320.68	3.2440	3.2441	-0.2918	27.52	1.74	-1.500			
0.7715	49375.81	3.2410	3.2410	-0.2854	27.53	1.75	-1.500			
0.7723	49430.13	3.2380	3.2380	-0.2804	27.54	1.76	-1.500			
0.7732	49483.18	3.2350	3.2350	-0.2758	27.54	1.76	-1.500			
0.7740	49535.11	3.2320	3.2320	-0.2704	27.55	1.77	-1.500			
0.7748	49586.32	3.2290	3.2290	-0.2657	27.55	1.77	-1.500			
0.7756	49637.40	3.2260	3.2260	-0.2632	27.56	1.78	-1.500			
0.7764	49688.01	3.2230	3.2230	-0.2579	27.57	1.79	-1.500			
0.7771	49736.83	3.2200	3.2200	-0.2530	27.57	1.79	-1.500			
0.7779	49784.57	3.2170	3.2170	-0.2492	27.58	1.80	-1.500			
0.7786	49831.96	3.2140	3.2141	-0.2452	27.58	1.80	-1.500			
0.7794	49878.52	3.2110	3.2109	-0.2415	27.59	1.81	-1.500			
0.7801	49924.58	3.2080	3.2080	-0.2371	27.60	1.82	-1.500			
0.7808	49969.54	3.2050	3.2051	-0.2353	27.60	1.82	-1.500			
0.7815	50014.56	3.2020	3.2021	-0.2314	27.61	1.83	-1.500			
0.7822	50059.23	3.1990	3.1989	-0.2291	27.61	1.83	-1.500			
0.7828	50102.28	3.1960	3.1960	-0.2252	27.62	1.84	-1.500			
0.7835	50144.93	3.1930	3.1932	-0.2219	27.62	1.84	-1.500			
0.7842	50187.62	3.1900	3.1899	-0.2197	27.63	1.85	-1.500			
0.7848	50229.78	3.1870	3.1870	-0.2165	27.63	1.85	-1.500			
0.7855	50270.32	3.1840	3.1841	-0.2124	27.64	1.86	-1.500			
0.7861	50310.93	3.1810	3.1810	-0.2106	27.64	1.86	-1.500			
0.7867	50351.75	3.1780	3.1780	-0.2081	27.65	1.87	-1.500			
0.7874	50390.91	3.1750	3.1749	-0.2059	27.65	1.87	-1.500			
0.7880	50430.25	3.1720	3.1720	-0.2028	27.66	1.88	-1.500			
0.7886	50469.00	3.1690	3.1690	-0.2009	27.66	1.88	-1.500			
0.7892	50507.41	3.1660	3.1659	-0.1995	27.67	1.89	-1.500			
0.7898	50545.80	3.1630	3.1631	-0.1976	27.68	1.90	-1.500			
0.7904	50583.16	3.1600	3.1600	-0.1950	27.68	1.90	-1.500			
0.7909	50620.44	3.1570	3.1570	-0.1934	27.69	1.91	-1.500			
0.7915	50657.64	3.1540	3.1540	-0.1920	27.69	1.91	-1.500			
0.7921	50694.17	3.1510	3.1509	-0.1888	27.70	1.92	-1.500			
0.7927	50730.37	3.1480	3.1480	-0.1880	27.71	1.93	-1.500			
0.7932	50766.24	3.1450	3.1450	-0.1857	27.71	1.93	-1.500			
0.7938	50801.36	3.1420	3.1421	-0.1839	27.72	1.94	-1.500			
0.7943	50836.67	3.1390	3.1389	-0.1824	27.72	1.94	-1.500			
0.7949	50871.39	3.1360	3.1360	-0.1803	27.73	1.95	-1.500			
0.7954	50905.88	3.1330	3.1330	-0.1790	27.74	1.96	-1.500			
0.7959	50940.14	3.1300	3.1300	-0.1779	27.74	1.96	-1.500			
0.7965	50974.54	3.1270	3.1269	-0.1766	27.75	1.97	-1.500			
0.7970	51007.88	3.1240	3.1241	-0.1745	27.75	1.97	-1.500			
0.7975	51041.25	3.1210	3.1209	-0.1732	27.76	1.98	-1.500			
0.7980	51074.24	3.1180	3.1181	-0.1723	27.77	1.99	-1.500			
0.7986	51107.59	3.1150	3.1150	-0.1704	27.77	1.99	-1.500			
0.7991	51140.05	3.1120	3.1120	-0.1689	27.78	2.00	-1.500			
0.7996	51172.31	3.1090	3.1090	-0.1672	27.78	2.00	-1.500			
0.8001	51204.20	3.1060	3.1061	-0.1656	27.78	2.00	-1.500			
0.8006	51235.84	3.1030	3.1029	-0.1647	27.79	2.01	-1.500			
0.8010	51267.06	3.1000	3.1000	-0.1627	27.79	2.01	-1.500			
0.8015	51298.21	3.0970	3.0970	-0.1618	27.80	2.02	-1.500			
0.8020	51329.06	3.0940	3.0940	-0.1609	27.80	2.02	-1.500			
0.8025	51360.32	3.0910	3.0910	-0.1603	27.81	2.03	-1.500			
0.8030	51390.67	3.0880	3.0880	-0.1589	27.81	2.03	-1.500			
0.8035	51421.09	3.0850	3.0850	-0.1580	27.82	2.04	-1.500			
0.8039	51451.51	3.0820	3.0820	-0.1563	27.83	2.05	-1.500			
0.8044	51481.23	3.0790	3.0790	-0.1553	27.83	2.05	-1.500			
0.8049	51510.94	3.0760	3.0761	-0.1544	27.84	2.06	-1.500			
0.8053	51540.49	3.0730	3.0730	-0.1534	27.84	2.06	-1.500			
0.8058	51569.70	3.0700	3.0699	-0.1525	27.85	2.07	-1.500			
0.8062	51599.01	3.0670	3.0669	-0.1516	27.85	2.07	-1.500			
0.8067	51628.05	3.0640	3.0640	-0.1503	27.86	2.08	-1.500			
0.8071	51656.82	3.0610	3.0612	-0.1494	27.86	2.08	-1.500			
0.8076	51685.73	3.0580	3.0580	-0.1485	27.87	2.09	-1.500			
0.8080	51713.73	3.0550	3.0552	-0.1474	27.87	2.09	-1.500			
0.8085	51741.88	3.0520	3.0520	-0.1466	27.88	2.10	-1.500			
0.8089	51770.10	3.0490	3.0489	-0.1451	27.89	2.11	-1.500			
0.8093	51797.75	3.0460	3.0460	-0.1442	27.89	2.11	-1.500			
0.8098	51825.28	3.0430	3.0431	-0.1436	27.90	2.12	-1.500			
0.8102	51852.81	3.0400	3.0400	-0.1430	27.90	2.12	-1.500			
0.8106	51880.25	3.0370	3.0369	-0.1420	27.91	2.13	-1.500			
0.8111	51907.48	3.0340	3.0339	-0.1409	27.91	2.13	-1.500			
0.8115	51934.18	3.0310	3.0311	-0.1399	27.92	2.14	-1.500			
0.8119	51961.01	3.0280	3.0280	-0.1395	27.92	2.14	-1.500			
0.8123	51988.08	3.0250	3.0250	-0.1386	27.93	2.15	-1.500			
0.8127	52014.52	3.0220	3.0219	-0.1371	27.93	2.15	-1.500			
0.8131	52040.60	3.0190	3.0190	-0.1361	27.94	2.16	-1.500			
0.8135	52066.64	3.0160	3.0162	-0.1352	27.94	2.16	-1.500			
0.8139	52092.57	3.0130	3.0130	-0.1345	27.95	2.17	-1.500			
0.8143	52118.29	3.0100	3.0099	-0.1336	27.95	2.17	-1.500			
0.8147	52143.49	3.0070	3.0071	-0.1329	27.96	2.18	-1.500			
0.8151	52169.03	3.0040	3.0040	-0.1331	27.96	2.18	-1.500			
0.8155	52194.59	3.0010	3.0010	-0.1325	27.96	2.18	-1.500			
