Ah_balance (normalized)	Ah_balance (mAh)	Voltage - fit (V)	Voltage -  interpolate (V)	dQ/dV (1/V)	Temperature (°C)	Temperature - diff (°C)	Current (C)	R_DC 0ms (mOhm)	R_DC 50ms (mOhm)	R_DC 50 ms PEC (mOhm)
0.1862	11918.45	3.9270	3.9267	-0.0995	25.86	-0.02	-1.500			
0.1866	11940.33	3.9240	3.9239	-0.1248	25.86	-0.02	-1.500			
0.1870	11966.56	3.9210	3.9209	-0.1490	25.86	-0.02	-1.500			
0.1875	11997.49	3.9180	3.9180	-0.1732	25.86	-0.02	-1.500			
0.1880	12033.13	3.9150	3.9151	-0.1961	25.87	-0.01	-1.500			
0.1887	12073.98	3.9120	3.9119	-0.2170	25.87	-0.01	-1.500			
0.1893	12118.33	3.9090	3.9091	-0.2370	25.87	-0.01	-1.500			
0.1901	12165.63	3.9060	3.9060	-0.2559	25.87	-0.01	-1.500			
0.1909	12216.71	3.9030	3.9031	-0.2756	25.87	-0.01	-1.500			
0.1917	12270.85	3.9000	3.9000	-0.2971	25.87	-0.01	-1.500			
0.1926	12329.28	3.8970	3.8970	-0.3170	25.87	-0.01	-1.500			
0.1936	12392.45	3.8940	3.8940	-0.3367	25.87	-0.01	-1.500			
0.1947	12459.52	3.8910	3.8910	-0.3558	25.87	-0.01	-1.500			
0.1958	12530.32	3.8880	3.8881	-0.3755	25.87	-0.01	-1.500			
0.1969	12604.35	3.8850	3.8849	-0.3929	25.88	-0.00	-1.500			
0.1981	12681.39	3.8820	3.8820	-0.4103	25.88	-0.00	-1.500			
0.1994	12762.05	3.8790	3.8789	-0.4251	25.88	-0.00	-1.500			
0.2007	12845.54	3.8760	3.8761	-0.4412	25.88	0.00	-1.500			
0.2021	12932.17	3.8730	3.8730	-0.4548	25.88	0.00	-1.500			
0.2035	13021.16	3.8700	3.8700	-0.4680	25.88	0.00	-1.500			
0.2049	13111.44	3.8670	3.8670	-0.4797	25.89	0.01	-1.500			
0.2063	13204.78	3.8640	3.8640	-0.4933	25.89	0.01	-1.500			
0.2078	13301.24	3.8610	3.8610	-0.5032	25.89	0.01	-1.500			
0.2094	13399.32	3.8580	3.8580	-0.5148	25.89	0.01	-1.500			
0.2109	13499.63	3.8550	3.8551	-0.5246	25.89	0.01	-1.500			
0.2125	13601.61	3.8520	3.8520	-0.5330	25.90	0.02	-1.500			
0.2141	13704.88	3.8490	3.8490	-0.5409	25.90	0.02	-1.500			
0.2158	13809.45	3.8460	3.8461	-0.5477	25.90	0.02	-1.500			
0.2174	13915.33	3.8430	3.8430	-0.5547	25.90	0.02	-1.500			
0.2191	14022.40	3.8400	3.8400	-0.5648	25.90	0.02	-1.500			
0.2208	14131.48	3.8370	3.8370	-0.5687	25.90	0.02	-1.500			
0.2225	14241.39	3.8340	3.8340	-0.5754	25.91	0.03	-1.500			
0.2243	14353.53	3.8310	3.8310	-0.5795	25.91	0.03	-1.500			
0.2260	14465.24	3.8280	3.8279	-0.5821	25.91	0.03	-1.500			
0.2278	14577.42	3.8250	3.8250	-0.5862	25.92	0.04	-1.500			
0.2295	14689.95	3.8220	3.8220	-0.5887	25.92	0.04	-1.500			
0.2313	14802.48	3.8190	3.8190	-0.5905	25.92	0.04	-1.500			
0.2331	14917.43	3.8160	3.8160	-0.5940	25.93	0.05	-1.500			
0.2349	15030.93	3.8130	3.8130	-0.5968	25.93	0.05	-1.500			
0.2367	15145.96	3.8100	3.8100	-0.6017	25.93	0.05	-1.500			
0.2385	15261.54	3.8070	3.8070	-0.6057	25.94	0.06	-1.500			
0.2403	15378.03	3.8040	3.8040	-0.6099	25.94	0.06	-1.500			
0.2421	15496.03	3.8010	3.8010	-0.6122	25.94	0.06	-1.500			
0.2440	15613.71	3.7980	3.7980	-0.6184	25.95	0.07	-1.500			
0.2458	15733.10	3.7950	3.7950	-0.6237	25.95	0.07	-1.500			
0.2477	15853.82	3.7920	3.7918	-0.6228	25.96	0.08	-1.500			
0.2496	15973.15	3.7890	3.7890	-0.6260	25.96	0.08	-1.500			
0.2515	16093.77	3.7860	3.7861	-0.6274	25.96	0.08	-1.500			
0.2534	16214.82	3.7830	3.7830	-0.6298	25.97	0.09	-1.500			
0.2552	16335.89	3.7800	3.7799	-0.6324	25.97	0.09	-1.500			
0.2571	16455.56	3.7770	3.7770	-0.6340	25.98	0.10	-1.500			
0.2590	16577.97	3.7740	3.7740	-0.6392	25.98	0.10	-1.500			
0.2610	16701.65	3.7710	3.7710	-0.6456	25.99	0.11	-1.500			
0.2629	16826.24	3.7680	3.7679	-0.6485	25.99	0.11	-1.500			
0.2649	16951.66	3.7650	3.7650	-0.6555	26.00	0.12	-1.500			
0.2668	17077.95	3.7620	3.7620	-0.6587	26.00	0.12	-1.500			
0.2688	17204.93	3.7590	3.7591	-0.6612	26.01	0.13	-1.500			
0.2708	17331.99	3.7560	3.7559	-0.6654	26.01	0.13	-1.500			
0.2728	17460.76	3.7530	3.7530	-0.6676	26.01	0.13	-1.500			
0.2748	17588.33	3.7500	3.7500	-0.6715	26.02	0.14	-1.500			
0.2768	17716.82	3.7470	3.7470	-0.6778	26.03	0.15	-1.500			
0.2789	17847.72	3.7440	3.7440	-0.6810	26.03	0.15	-1.500			
0.2809	17979.64	3.7410	3.7410	-0.6860	26.04	0.16	-1.500			
0.2830	18111.24	3.7380	3.7380	-0.6943	26.04	0.16	-1.500			
0.2851	18245.49	3.7350	3.7351	-0.6956	26.05	0.17	-1.500			
0.2872	18379.67	3.7320	3.7319	-0.7033	26.05	0.17	-1.500			
0.2893	18514.78	3.7290	3.7290	-0.7065	26.06	0.18	-1.500			
0.2914	18651.15	3.7260	3.7259	-0.7132	26.07	0.19	-1.500			
0.2936	18788.91	3.7230	3.7230	-0.7228	26.07	0.19	-1.500			
0.2957	18927.76	3.7200	3.7200	-0.7304	26.08	0.20	-1.500			
0.2979	19067.68	3.7170	3.7170	-0.7376	26.08	0.20	-1.500			
0.3002	19211.70	3.7140	3.7141	-0.7469	26.09	0.21	-1.500			
0.3024	19355.89	3.7110	3.7110	-0.7486	26.10	0.22	-1.500			
0.3047	19500.60	3.7080	3.7080	-0.7545	26.10	0.22	-1.500			
0.3070	19644.98	3.7050	3.7050	-0.7601	26.11	0.23	-1.500			
0.3092	19791.28	3.7020	3.7021	-0.7660	26.12	0.24	-1.500			
0.3115	19938.37	3.6990	3.6989	-0.7707	26.12	0.24	-1.500			
0.3139	20087.34	3.6960	3.6960	-0.7778	26.13	0.25	-1.500			
0.3162	20237.22	3.6930	3.6930	-0.7894	26.14	0.26	-1.500			
0.3186	20390.51	3.6900	3.6900	-0.7994	26.14	0.26	-1.500			
0.3210	20544.36	3.6870	3.6870	-0.8038	26.15	0.27	-1.500			
0.3234	20698.85	3.6840	3.6839	-0.8079	26.16	0.28	-1.500			
0.3259	20855.35	3.6810	3.6811	-0.8153	26.16	0.28	-1.500			
0.3283	21012.65	3.6780	3.6780	-0.8198	26.17	0.29	-1.500			
0.3308	21169.13	3.6750	3.6750	-0.8264	26.17	0.29	-1.500			
0.3332	21327.16	3.6720	3.6721	-0.8333	26.17	0.29	-1.500			
0.3358	21488.74	3.6690	3.6690	-0.8466	26.18	0.30	-1.500			
0.3383	21653.44	3.6660	3.6659	-0.8546	26.18	0.30	-1.500			
0.3409	21818.91	3.6630	3.6630	-0.8616	26.19	0.31	-1.500			
0.3435	21984.92	3.6600	3.6600	-0.8718	26.19	0.31	-1.500			
0.3461	22153.56	3.6570	3.6570	-0.8776	26.19	0.31	-1.500			
0.3488	22321.09	3.6540	3.6540	-0.8852	26.20	0.32	-1.500			
0.3514	22492.53	3.6510	3.6510	-0.8936	26.20	0.32	-1.500			
0.3541	22665.47	3.6480	3.6480	-0.9043	26.21	0.33	-1.500			
0.3569	22840.71	3.6450	3.6451	-0.9144	26.22	0.34	-1.500			
0.3596	23016.10	3.6420	3.6420	-0.9247	26.22	0.34	-1.500			
0.3624	23194.04	3.6390	3.6390	-0.9330	26.23	0.35	-1.500			
0.3652	23374.58	3.6360	3.6359	-0.9472	26.24	0.36	-1.500			
0.3681	23556.80	3.6330	3.6330	-0.9576	26.24	0.36	-1.500			
0.3710	23744.30	3.6300	3.6300	-0.9668	26.25	0.37	-1.500			
0.3739	23929.49	3.6270	3.6270	-0.9760	26.26	0.38	-1.500			
0.3769	24119.01	3.6240	3.6240	-0.9832	26.26	0.38	-1.500			
0.3798	24307.40	3.6210	3.6209	-0.9926	26.27	0.39	-1.500			
0.3828	24498.46	3.6180	3.6180	-1.0033	26.27	0.39	-1.500			
0.3858	24690.12	3.6150	3.6151	-1.0148	26.28	0.40	-1.500			
0.3889	24887.18	3.6120	3.6119	-1.0344	26.28	0.40	-1.500			
0.3920	25089.43	3.6090	3.6090	-1.0474	26.29	0.41	-1.500			
0.3952	25290.05	3.6060	3.6059	-1.0590	26.29	0.41	-1.500			
0.3984	25495.50	3.6030	3.6030	-1.0758	26.30	0.42	-1.500			
0.4016	25702.60	3.6000	3.6000	-1.0854	26.30	0.42	-1.500			
0.4049	25912.46	3.5970	3.5970	-1.1010	26.31	0.43	-1.500			
0.4082	26124.40	3.5940	3.5940	-1.1140	26.31	0.43	-1.500			
0.4116	26340.68	3.5910	3.5911	-1.1305	26.32	0.44	-1.500			
0.4150	26560.95	3.5880	3.5880	-1.1449	26.32	0.44	-1.500			
0.4185	26780.96	3.5850	3.5850	-1.1549	26.33	0.45	-1.500			
0.4219	27004.13	3.5820	3.5820	-1.1693	26.34	0.46	-1.500			
0.4254	27228.17	3.5790	3.5790	-1.1890	26.34	0.46	-1.500			
0.4290	27458.50	3.5760	3.5759	-1.2020	26.34	0.46	-1.500			
0.4327	27690.10	3.5730	3.5730	-1.2196	26.35	0.47	-1.500			
0.4363	27924.47	3.5700	3.5701	-1.2466	26.35	0.47	-1.500			
0.4401	28167.49	3.5670	3.5670	-1.2688	26.35	0.47	-1.500			
0.4440	28413.85	3.5640	3.5639	-1.2866	26.36	0.48	-1.500			
0.4479	28663.29	3.5610	3.5610	-1.3004	26.36	0.48	-1.500			
0.4518	28914.51	3.5580	3.5580	-1.3140	26.36	0.48	-1.500			
0.4558	29170.97	3.5550	3.5550	-1.3369	26.37	0.49	-1.500			
0.4598	29426.92	3.5520	3.5520	-1.3469	26.38	0.50	-1.500			
0.4638	29684.95	3.5490	3.5490	-1.3566	26.38	0.50	-1.500			
0.4680	29948.89	3.5460	3.5460	-1.3778	26.39	0.51	-1.500			
0.4721	30213.75	3.5430	3.5430	-1.4002	26.40	0.52	-1.500			
0.4763	30483.67	3.5400	3.5400	-1.4232	26.40	0.52	-1.500			
0.4806	30758.59	3.5370	3.5369	-1.4428	26.41	0.53	-1.500			
0.4849	31036.30	3.5340	3.5340	-1.4646	26.42	0.54	-1.500			
0.4894	31321.08	3.5310	3.5311	-1.4879	26.42	0.54	-1.500			
0.4939	31612.26	3.5280	3.5280	-1.5026	26.43	0.55	-1.500			
0.4985	31903.14	3.5250	3.5249	-1.5112	26.44	0.56	-1.500			
0.5030	32192.97	3.5220	3.5226	-1.5181	26.44	0.56	-1.500	0.372	0.562	
0.5076	32484.23	3.5190	3.5189	-1.5272	26.45	0.57	-1.500			
0.5122	32778.98	3.5160	3.5160	-1.5486	26.46	0.58	-1.500			
0.5168	33076.09	3.5130	3.5130	-1.5595	26.47	0.59	-1.500			
0.5216	33380.69	3.5100	3.5099	-1.5736	26.47	0.59	-1.500			
0.5263	33685.21	3.5070	3.5071	-1.5819	26.48	0.60	-1.500			
0.5311	33991.24	3.5040	3.5040	-1.5862	26.49	0.61	-1.500			
0.5359	34295.43	3.5010	3.5010	-1.5965	26.50	0.62	-1.500			
0.5406	34600.24	3.4980	3.4979	-1.5887	26.51	0.63	-1.500			
0.5455	34908.96	3.4950	3.4949	-1.5976	26.52	0.64	-1.500			
0.5503	35216.14	3.4920	3.4922	-1.5980	26.53	0.65	-1.500			
0.5551	35523.62	3.4890	3.4889	-1.5970	26.54	0.66	-1.500			
0.5598	35828.92	3.4860	3.4860	-1.5967	26.55	0.67	-1.500			
0.5646	36135.20	3.4830	3.4830	-1.5928	26.57	0.69	-1.500			
0.5694	36443.49	3.4800	3.4800	-1.5914	26.58	0.70	-1.500			
0.5742	36749.76	3.4770	3.4771	-1.5791	26.59	0.71	-1.500			
0.5789	37051.26	3.4740	3.4740	-1.5738	26.60	0.72	-1.500			
0.5836	37351.68	3.4710	3.4710	-1.5654	26.61	0.73	-1.500			
0.5883	37650.36	3.4680	3.4679	-1.5503	26.63	0.75	-1.500			
0.5929	37946.59	3.4650	3.4650	-1.5370	26.64	0.76	-1.500			
0.5975	38243.20	3.4620	3.4621	-1.5275	26.65	0.77	-1.500			
0.6021	38536.30	3.4590	3.4590	-1.5080	26.67	0.79	-1.500			
0.6066	38825.07	3.4560	3.4560	-1.4945	26.68	0.80	-1.500			
0.6111	39108.14	3.4530	3.4530	-1.4745	26.69	0.81	-1.500			
0.6155	39390.45	3.4500	3.4500	-1.4522	26.70	0.82	-1.500			
0.6198	39667.68	3.4470	3.4470	-1.4391	26.72	0.84	-1.500			
0.6241	39942.61	3.4440	3.4440	-1.4193	26.73	0.85	-1.500			
0.6283	40213.18	3.4410	3.4410	-1.3996	26.74	0.86	-1.500			
0.6325	40479.56	3.4380	3.4380	-1.3887	26.76	0.88	-1.500			
0.6366	40743.54	3.4350	3.4350	-1.3678	26.77	0.89	-1.500			
0.6407	41005.23	3.4320	3.4320	-1.3508	26.79	0.91	-1.500			
0.6448	41264.45	3.4290	3.4290	-1.3382	26.80	0.92	-1.500			
0.6487	41518.38	3.4260	3.4260	-1.3142	26.82	0.94	-1.500			
0.6527	41771.19	3.4230	3.4230	-1.2953	26.83	0.95	-1.500			
0.6565	42017.02	3.4200	3.4200	-1.2711	26.84	0.96	-1.500			
0.6603	42256.10	3.4170	3.4171	-1.2479	26.86	0.98	-1.500			
0.6640	42496.49	3.4140	3.4140	-1.2251	26.87	0.99	-1.500			
0.6677	42730.54	3.4110	3.4109	-1.2013	26.88	1.00	-1.500			
0.6712	42957.71	3.4080	3.4080	-1.1750	26.90	1.02	-1.500			
0.6747	43181.95	3.4050	3.4051	-1.1501	26.91	1.03	-1.500			
0.6781	43399.84	3.4020	3.4019	-1.1242	26.92	1.04	-1.500			
0.6815	43613.53	3.3990	3.3989	-1.0936	26.94	1.06	-1.500			
0.6847	43820.38	3.3960	3.3960	-1.0663	26.95	1.07	-1.500			
0.6879	44022.78	3.3930	3.3929	-1.0472	26.97	1.09	-1.500			
0.6910	44221.30	3.3900	3.3900	-1.0162	26.98	1.10	-1.500			
0.6940	44413.54	3.3870	3.3869	-0.9882	26.99	1.11	-1.500			
0.6969	44601.63	3.3840	3.3841	-0.9609	27.01	1.13	-1.500			
0.6997	44783.28	3.3810	3.3810	-0.9338	27.02	1.14	-1.500			
0.7025	44960.38	3.3780	3.3779	-0.9063	27.03	1.15	-1.500			
0.7052	45129.72	3.3750	3.3751	-0.8750	27.04	1.16	-1.500			
0.7077	45294.55	3.3720	3.3720	-0.8498	27.05	1.17	-1.500			
0.7103	45456.60	3.3690	3.3689	-0.8264	27.06	1.18	-1.500			
0.7127	45612.63	3.3660	3.3660	-0.8000	27.07	1.19	-1.500			
0.7151	45763.83	3.3630	3.3631	-0.7757	27.07	1.19	-1.500			
0.7173	45909.45	3.3600	3.3600	-0.7559	27.08	1.20	-1.500			
0.7196	46053.00	3.3570	3.3569	-0.7376	27.09	1.21	-1.500			
0.7218	46192.16	3.3540	3.3540	-0.7153	27.10	1.22	-1.500			
0.7239	46327.10	3.3510	3.3510	-0.6977	27.11	1.23	-1.500			
0.7259	46460.15	3.3480	3.3480	-0.6806	27.12	1.24	-1.500			
0.7279	46588.61	3.3450	3.3450	-0.6661	27.13	1.25	-1.500			
0.7299	46714.06	3.3420	3.3419	-0.6497	27.14	1.26	-1.500			
0.7318	46836.84	3.3390	3.3390	-0.6331	27.15	1.27	-1.500			
0.7337	46958.09	3.3360	3.3360	-0.6172	27.16	1.28	-1.500			
0.7356	47076.47	3.3330	3.3330	-0.6015	27.17	1.29	-1.500			
0.7373	47188.60	3.3300	3.3300	-0.5849	27.18	1.30	-1.500			
0.7390	47298.55	3.3270	3.3271	-0.5691	27.19	1.31	-1.500			
0.7407	47406.03	3.3240	3.3239	-0.5516	27.20	1.32	-1.500			
0.7423	47509.99	3.3210	3.3210	-0.5401	27.21	1.33	-1.500			
0.7440	47612.92	3.3180	3.3181	-0.5268	27.21	1.33	-1.500			
0.7455	47713.09	3.3150	3.3150	-0.5166	27.22	1.34	-1.500			
0.7470	47810.85	3.3120	3.3119	-0.5027	27.22	1.34	-1.500			
0.7485	47905.02	3.3090	3.3090	-0.4900	27.23	1.35	-1.500			
0.7500	47998.84	3.3060	3.3060	-0.4787	27.23	1.35	-1.500			
0.7514	48090.37	3.3030	3.3030	-0.4663	27.24	1.36	-1.500			
0.7528	48177.12	3.3000	3.3000	-0.4534	27.25	1.37	-1.500			
0.7541	48263.93	3.2970	3.2971	-0.4440	27.26	1.38	-1.500			
0.7554	48346.93	3.2940	3.2940	-0.4309	27.26	1.38	-1.500			
0.7567	48429.31	3.2910	3.2909	-0.4210	27.27	1.39	-1.500			
0.7579	48508.39	3.2880	3.2882	-0.4098	27.28	1.40	-1.500			
0.7592	48586.72	3.2850	3.2849	-0.4019	27.29	1.41	-1.500			
0.7604	48663.04	3.2820	3.2821	-0.3929	27.29	1.41	-1.500			
0.7615	48736.98	3.2790	3.2789	-0.3820	27.30	1.42	-1.500			
0.7626	48809.14	3.2760	3.2760	-0.3759	27.31	1.43	-1.500			
0.7638	48880.74	3.2730	3.2730	-0.3676	27.31	1.43	-1.500			
0.7649	48950.74	3.2700	3.2699	-0.3598	27.32	1.44	-1.500			
0.7659	49018.77	3.2670	3.2670	-0.3508	27.33	1.45	-1.500			
0.7670	49085.26	3.2640	3.2641	-0.3431	27.33	1.45	-1.500			
0.7680	49150.38	3.2610	3.2610	-0.3353	27.34	1.46	-1.500			
0.7690	49213.94	3.2580	3.2580	-0.3286	27.34	1.46	-1.500			
0.7699	49275.55	3.2550	3.2550	-0.3201	27.35	1.47	-1.500			
0.7709	49336.59	3.2520	3.2520	-0.3159	27.36	1.48	-1.500			
0.7718	49396.56	3.2490	3.2490	-0.3103	27.36	1.48	-1.500			
0.7727	49455.51	3.2460	3.2460	-0.3050	27.37	1.49	-1.500			
0.7737	49513.69	3.2430	3.2430	-0.3000	27.37	1.49	-1.500			
0.7746	49571.20	3.2400	3.2400	-0.2943	27.38	1.50	-1.500			
0.7754	49626.96	3.2370	3.2370	-0.2878	27.38	1.50	-1.500			
0.7763	49681.66	3.2340	3.2341	-0.2833	27.39	1.51	-1.500			
0.7771	49735.09	3.2310	3.2310	-0.2772	27.40	1.52	-1.500			
0.7779	49787.91	3.2280	3.2280	-0.2736	27.40	1.52	-1.500			
0.7787	49840.00	3.2250	3.2250	-0.2692	27.41	1.53	-1.500			
0.7796	49891.26	3.2220	3.2220	-0.2648	27.41	1.53	-1.500			
0.7803	49941.95	3.2190	3.2190	-0.2602	27.42	1.54	-1.500			
0.7811	49991.50	3.2160	3.2160	-0.2553	27.42	1.54	-1.500			
0.7819	50039.57	3.2130	3.2131	-0.2509	27.43	1.55	-1.500			
0.7826	50087.19	3.2100	3.2099	-0.2467	27.44	1.56	-1.500			
0.7833	50133.83	3.2070	3.2070	-0.2433	27.44	1.56	-1.500			
0.7841	50180.27	3.2040	3.2040	-0.2405	27.45	1.57	-1.500			
0.7848	50226.38	3.2010	3.2010	-0.2375	27.45	1.57	-1.500			
0.7855	50271.70	3.1980	3.1980	-0.2346	27.46	1.58	-1.500			
0.7862	50316.65	3.1950	3.1950	-0.2317	27.46	1.58	-1.500			
0.7869	50361.01	3.1920	3.1920	-0.2284	27.47	1.59	-1.500			
0.7876	50404.27	3.1890	3.1890	-0.2244	27.47	1.59	-1.500			
0.7882	50447.06	3.1860	3.1860	-0.2212	27.48	1.60	-1.500			
0.7889	50489.24	3.1830	3.1829	-0.2179	27.48	1.60	-1.500			
0.7895	50530.53	3.1800	3.1801	-0.2157	27.49	1.61	-1.500			
0.7902	50571.56	3.1770	3.1770	-0.2135	27.49	1.61	-1.500			
0.7908	50612.46	3.1740	3.1741	-0.2107	27.50	1.62	-1.500			
0.7914	50652.71	3.1710	3.1709	-0.2086	27.50	1.62	-1.500			
0.7921	50692.59	3.1680	3.1681	-0.2068	27.51	1.63	-1.500			
0.7927	50732.06	3.1650	3.1651	-0.2052	27.52	1.64	-1.500			
0.7933	50771.26	3.1620	3.1620	-0.2034	27.52	1.64	-1.500			
0.7939	50810.13	3.1590	3.1589	-0.2015	27.53	1.65	-1.500			
0.7945	50848.50	3.1560	3.1560	-0.1985	27.53	1.65	-1.500			
0.7951	50886.53	3.1530	3.1530	-0.1965	27.54	1.66	-1.500			
0.7957	50924.14	3.1500	3.1500	-0.1952	27.54	1.66	-1.500			
0.7963	50961.39	3.1470	3.1470	-0.1928	27.55	1.67	-1.500			
0.7968	50997.92	3.1440	3.1438	-0.1908	27.55	1.67	-1.500			
0.7974	51034.38	3.1410	3.1410	-0.1883	27.56	1.68	-1.500			
0.7980	51070.49	3.1380	3.1380	-0.1863	27.56	1.68	-1.500			
0.7985	51106.04	3.1350	3.1351	-0.1840	27.57	1.69	-1.500			
0.7991	51141.29	3.1320	3.1320	-0.1831	27.57	1.69	-1.500			
0.7996	51176.00	3.1290	3.1290	-0.1812	27.58	1.70	-1.500			
0.8002	51210.56	3.1260	3.1259	-0.1791	27.58	1.70	-1.500			
0.8007	51244.83	3.1230	3.1230	-0.1779	27.59	1.71	-1.500			
0.8012	51278.75	3.1200	3.1201	-0.1770	27.60	1.72	-1.500			
0.8018	51312.88	3.1170	3.1170	-0.1762	27.60	1.72	-1.500			
0.8023	51346.62	3.1140	3.1139	-0.1749	27.61	1.73	-1.500			
0.8028	51380.05	3.1110	3.1110	-0.1734	27.62	1.74	-1.500			
0.8033	51413.11	3.1080	3.1080	-0.1711	27.62	1.74	-1.500			
0.8038	51445.92	3.1050	3.1050	-0.1698	27.63	1.75	-1.500			
0.8043	51478.16	3.1020	3.1020	-0.1688	27.64	1.76	-1.500			
0.8049	51510.45	3.0990	3.0991	-0.1675	27.64	1.76	-1.500			
0.8053	51542.22	3.0960	3.0959	-0.1656	27.65	1.77	-1.500			
0.8058	51573.86	3.0930	3.0930	-0.1649	27.65	1.77	-1.500			
0.8063	51605.51	3.0900	3.0900	-0.1639	27.66	1.78	-1.500			
0.8068	51636.90	3.0870	3.0871	-0.1631	27.67	1.79	-1.500			
0.8073	51668.49	3.0840	3.0839	-0.1619	27.67	1.79	-1.500			
0.8078	51699.33	3.0810	3.0810	-0.1604	27.68	1.80	-1.500			
0.8083	51729.84	3.0780	3.0780	-0.1587	27.69	1.81	-1.500			
0.8088	51760.23	3.0750	3.0750	-0.1572	27.69	1.81	-1.500			
0.8092	51790.24	3.0720	3.0720	-0.1568	27.70	1.82	-1.500			
0.8097	51820.03	3.0690	3.0690	-0.1553	27.70	1.82	-1.500			
0.8102	51849.79	3.0660	3.0660	-0.1547	27.71	1.83	-1.500			
0.8106	51879.39	3.0630	3.0629	-0.1541	27.71	1.83	-1.500			
0.8111	51909.25	3.0600	3.0600	-0.1529	27.72	1.84	-1.500			
0.8115	51938.48	3.0570	3.0570	-0.1518	27.72	1.84	-1.500			
0.8120	51967.48	3.0540	3.0540	-0.1503	27.73	1.85	-1.500			
0.8124	51996.35	3.0510	3.0510	-0.1493	27.74	1.86	-1.500			
0.8129	52024.46	3.0480	3.0480	-0.1482	27.74	1.86	-1.500			
0.8133	52052.85	3.0450	3.0450	-0.1475	27.75	1.87	-1.500			
0.8138	52081.13	3.0420	3.0420	-0.1471	27.75	1.87	-1.500			
0.8142	52109.20	3.0390	3.0390	-0.1465	27.76	1.88	-1.500			
0.8147	52137.72	3.0360	3.0360	-0.1457	27.76	1.88	-1.500			
0.8151	52165.66	3.0330	3.0330	-0.1445	27.77	1.89	-1.500			
0.8155	52193.20	3.0300	3.0300	-0.1435	27.77	1.89	-1.500			
0.8159	52220.64	3.0270	3.0271	-0.1427	27.78	1.90	-1.500			
0.8164	52247.77	3.0240	3.0240	-0.1414	27.78	1.90	-1.500			
0.8168	52274.81	3.0210	3.0209	-0.1406	27.79	1.91	-1.500			
0.8172	52301.78	3.0180	3.0180	-0.1396	27.79	1.91	-1.500			
0.8176	52328.39	3.0150	3.0150	-0.1388	27.80	1.92	-1.500			
0.8181	52355.21	3.0120	3.0120	-0.1384	27.80	1.92	-1.500			
0.8185	52381.67	3.0090	3.0090	-0.1372	27.81	1.93	-1.500			
0.8189	52407.81	3.0060	3.0059	-0.1366	27.81	1.93	-1.500			
0.8193	52434.00	3.0030	3.0031	-0.1372	27.82	1.94	-1.500			
