Relative time (s)	Voltage (V)	Temperature (°C)	
9.842	3.0466	25.89	
69.842	3.0829	25.87	
129.842	3.1008	25.84	
189.842	3.1131	25.80	
249.842	3.1225	25.78	
309.842	3.1300	25.74	
369.842	3.1362	25.72	
429.842	3.1414	25.68	
489.842	3.1457	25.66	
549.842	3.1495	25.65	
609.842	3.1529	25.63	
669.842	3.1559	25.62	
729.842	3.1587	25.59	
789.842	3.1612	25.59	
849.842	3.1634	25.58	
903.306	3.1648	25.58	
