Ah_balance (normalized)	Ah_balance (mAh)	Voltage - fit (V)	Voltage -  interpolate (V)	dQ/dV (1/V)	Temperature (°C)	Temperature - diff (°C)	Current (C)	R_DC 0ms (mOhm)	R_DC 50ms (mOhm)	R_DC 50 ms PEC (mOhm)
0.0000	2.82	4.1850	4.1851	-0.3151	23.97	0.00	-0.050			
0.0004	23.88	4.1840	4.1840	-0.3636	23.97	-0.00	-0.050			
0.0008	48.49	4.1830	4.1828	-0.4030	23.96	-0.01	-0.050			
0.0012	76.19	4.1820	4.1816	-0.4386	23.96	-0.01	-0.050			
0.0016	105.33	4.1810	4.1810	-0.4616	23.95	-0.02	-0.050			
0.0021	136.30	4.1800	4.1800	-0.4837	23.95	-0.02	-0.050			
0.0026	168.66	4.1790	4.1789	-0.5031	23.95	-0.02	-0.050			
0.0032	202.36	4.1780	4.1778	-0.5202	23.95	-0.02	-0.050			
0.0037	236.77	4.1770	4.1770	-0.5353	23.94	-0.03	-0.050			
0.0043	272.11	4.1760	4.1758	-0.5491	23.94	-0.03	-0.050			
0.0048	308.30	4.1750	4.1752	-0.5615	23.94	-0.03	-0.050			
0.0054	345.11	4.1740	4.1742	-0.5732	23.94	-0.03	-0.050			
0.0060	382.42	4.1730	4.1732	-0.5847	23.92	-0.05	-0.050			
0.0066	423.75	4.1720	4.1721	-0.5971	23.93	-0.04	-0.050			
0.0072	463.44	4.1710	4.1709	-0.6061	23.93	-0.04	-0.050			
0.0079	503.58	4.1700	4.1701	-0.6122	23.92	-0.05	-0.050			
0.0085	542.96	4.1690	4.1690	-0.6170	23.92	-0.05	-0.050			
0.0091	583.29	4.1680	4.1681	-0.6220	23.92	-0.05	-0.050			
0.0097	623.39	4.1670	4.1672	-0.6263	23.92	-0.05	-0.050			
0.0104	663.67	4.1660	4.1661	-0.6296	23.92	-0.05	-0.050			
0.0110	704.37	4.1650	4.1651	-0.6332	23.92	-0.05	-0.050			
0.0116	745.00	4.1640	4.1641	-0.6386	23.92	-0.05	-0.050			
0.0123	786.22	4.1630	4.1632	-0.6426	23.92	-0.05	-0.050			
0.0129	828.07	4.1620	4.1620	-0.6454	23.92	-0.05	-0.050			
0.0136	869.39	4.1610	4.1609	-0.6490	23.92	-0.05	-0.050			
0.0142	910.26	4.1600	4.1598	-0.6523	23.92	-0.05	-0.050			
0.0149	951.93	4.1590	4.1591	-0.6567	23.92	-0.05	-0.050			
0.0155	993.81	4.1580	4.1578	-0.6607	23.91	-0.06	-0.050			
0.0162	1036.37	4.1570	4.1569	-0.6635	23.91	-0.06	-0.050			
0.0169	1078.66	4.1560	4.1557	-0.6669	23.91	-0.06	-0.050			
0.0175	1120.66	4.1550	4.1548	-0.6731	23.90	-0.07	-0.050			
0.0182	1163.63	4.1540	4.1541	-0.6783	23.90	-0.07	-0.050			
0.0189	1207.13	4.1530	4.1528	-0.6834	23.91	-0.06	-0.050			
0.0196	1251.71	4.1520	4.1521	-0.6873	23.90	-0.07	-0.050			
0.0203	1296.86	4.1510	4.1513	-0.6921	23.90	-0.07	-0.050			
0.0210	1341.57	4.1500	4.1501	-0.6941	23.92	-0.05	-0.050			
0.0217	1386.48	4.1490	4.1490	-0.6978	23.91	-0.06	-0.050			
0.0223	1430.29	4.1480	4.1480	-0.7039	23.90	-0.07	-0.050			
0.0231	1475.50	4.1470	4.1465	-0.7089	23.90	-0.07	-0.050			
0.0238	1520.94	4.1460	4.1459	-0.7130	23.90	-0.07	-0.050			
0.0245	1566.45	4.1450	4.1451	-0.7189	23.90	-0.07	-0.050			
0.0252	1612.76	4.1440	4.1441	-0.7207	23.90	-0.07	-0.050			
0.0259	1659.02	4.1430	4.1432	-0.7255	23.90	-0.07	-0.050			
0.0267	1706.17	4.1420	4.1419	-0.7304	23.90	-0.07	-0.050			
0.0274	1753.58	4.1410	4.1407	-0.7350	23.90	-0.07	-0.050			
0.0281	1799.40	4.1400	4.1398	-0.7387	23.90	-0.07	-0.050			
0.0289	1846.85	4.1390	4.1390	-0.7426	23.90	-0.07	-0.050			
0.0296	1895.17	4.1380	4.1381	-0.7463	23.90	-0.07	-0.050			
0.0304	1943.31	4.1370	4.1371	-0.7502	23.90	-0.07	-0.050			
0.0311	1991.61	4.1360	4.1360	-0.7541	23.90	-0.07	-0.050			
0.0319	2040.22	4.1350	4.1351	-0.7538	23.90	-0.07	-0.050			
0.0327	2089.75	4.1340	4.1340	-0.7528	23.92	-0.05	-0.050			
0.0334	2139.08	4.1330	4.1330	-0.7556	23.92	-0.05	-0.050			
0.0342	2188.43	4.1320	4.1319	-0.7566	23.92	-0.05	-0.050			
0.0350	2237.81	4.1310	4.1309	-0.7565	23.92	-0.05	-0.050			
0.0357	2286.15	4.1300	4.1300	-0.7551	23.92	-0.05	-0.050			
0.0365	2334.14	4.1290	4.1291	-0.7538	23.92	-0.05	-0.050			
0.0372	2381.29	4.1280	4.1281	-0.7511	23.93	-0.04	-0.050			
0.0380	2429.48	4.1270	4.1271	-0.7506	23.93	-0.04	-0.050			
0.0387	2477.67	4.1260	4.1260	-0.7505	23.94	-0.03	-0.050			
0.0395	2525.71	4.1250	4.1248	-0.7492	23.94	-0.03	-0.050			
0.0402	2573.04	4.1240	4.1239	-0.7494	23.94	-0.03	-0.050	0.321	0.521	
0.0409	2620.50	4.1230	4.1230	-0.7482	23.95	-0.02	-0.050			
0.0417	2668.55	4.1220	4.1219	-0.7479	23.96	-0.01	-0.050			
0.0425	2717.65	4.1210	4.1209	-0.7418	23.96	-0.01	-0.050			
0.0432	2765.89	4.1200	4.1199	-0.7343	23.97	-0.00	-0.050			
0.0440	2813.52	4.1190	4.1189	-0.7312	23.98	0.01	-0.050			
0.0447	2861.12	4.1180	4.1181	-0.7280	23.98	0.01	-0.050			
0.0454	2907.74	4.1170	4.1170	-0.7253	23.97	0.00	-0.050			
0.0461	2953.19	4.1160	4.1160	-0.7247	23.97	0.00	-0.050			
0.0469	2999.18	4.1150	4.1150	-0.7246	23.98	0.01	-0.050			
0.0476	3045.30	4.1140	4.1143	-0.7257	23.98	0.01	-0.050			
0.0483	3090.57	4.1130	4.1132	-0.7243	23.98	0.01	-0.050			
0.0490	3136.43	4.1120	4.1123	-0.7225	23.98	0.01	-0.050			
0.0497	3181.38	4.1110	4.1113	-0.7244	23.99	0.02	-0.050			
0.0504	3227.13	4.1100	4.1096	-0.7241	23.99	0.02	-0.050			
0.0511	3271.70	4.1090	4.1087	-0.7245	24.00	0.03	-0.050			
0.0518	3317.29	4.1080	4.1075	-0.7266	23.99	0.02	-0.050			
0.0525	3363.01	4.1070	4.1068	-0.7318	23.99	0.02	-0.050			
0.0533	3409.75	4.1060	4.1061	-0.7366	23.98	0.01	-0.050			
0.0540	3457.27	4.1050	4.1052	-0.7396	23.98	0.01	-0.050			
0.0548	3504.61	4.1040	4.1042	-0.7426	23.99	0.02	-0.050			
0.0555	3552.97	4.1030	4.1031	-0.7499	24.00	0.03	-0.050			
0.0563	3601.89	4.1020	4.1019	-0.7564	23.99	0.02	-0.050			
0.0571	3651.39	4.1010	4.1010	-0.7651	24.00	0.03	-0.050			
0.0578	3702.39	4.1000	4.1001	-0.7717	23.99	0.02	-0.050			
0.0586	3752.15	4.0990	4.0986	-0.7722	24.00	0.03	-0.050			
0.0594	3801.07	4.0980	4.0979	-0.7726	23.99	0.02	-0.050			
0.0602	3850.68	4.0970	4.0971	-0.7732	24.00	0.03	-0.050			
0.0609	3899.54	4.0960	4.0963	-0.7736	24.00	0.03	-0.050			
0.0617	3950.01	4.0950	4.0945	-0.7737	24.00	0.03	-0.050			
0.0625	4000.06	4.0940	4.0938	-0.7716	24.00	0.03	-0.050			
0.0633	4049.50	4.0930	4.0930	-0.7740	24.00	0.03	-0.050			
0.0641	4099.90	4.0920	4.0921	-0.7751	24.00	0.03	-0.050			
0.0648	4149.99	4.0910	4.0910	-0.7741	24.00	0.03	-0.050			
0.0656	4198.69	4.0900	4.0899	-0.7767	23.99	0.02	-0.050			
0.0664	4248.48	4.0890	4.0891	-0.7773	23.99	0.02	-0.050			
0.0671	4297.56	4.0880	4.0882	-0.7770	23.98	0.01	-0.050			
0.0679	4346.72	4.0870	4.0869	-0.7782	23.98	0.01	-0.050			
0.0687	4396.75	4.0860	4.0861	-0.7816	23.98	0.01	-0.050			
0.0695	4446.61	4.0850	4.0850	-0.7833	23.97	0.00	-0.050			
0.0703	4497.07	4.0840	4.0841	-0.7837	23.96	-0.01	-0.050			
0.0710	4545.73	4.0830	4.0831	-0.7841	23.96	-0.01	-0.050			
0.0718	4595.70	4.0820	4.0816	-0.7887	23.96	-0.01	-0.050			
0.0726	4646.11	4.0810	4.0809	-0.7912	23.95	-0.02	-0.050			
0.0734	4697.31	4.0800	4.0803	-0.7919	23.94	-0.03	-0.050			
0.0742	4749.13	4.0790	4.0789	-0.7943	23.94	-0.03	-0.050			
0.0750	4800.41	4.0780	4.0780	-0.7953	23.94	-0.03	-0.050			
0.0758	4851.89	4.0770	4.0770	-0.7976	23.93	-0.04	-0.050			
0.0766	4903.16	4.0760	4.0762	-0.7999	23.92	-0.05	-0.050			
0.0774	4954.45	4.0750	4.0750	-0.8018	23.92	-0.05	-0.050			
0.0782	5006.23	4.0740	4.0741	-0.8042	23.92	-0.05	-0.050			
0.0790	5057.82	4.0730	4.0732	-0.8023	23.91	-0.06	-0.050			
0.0798	5109.56	4.0720	4.0720	-0.7993	23.90	-0.07	-0.050	0.371	0.582	
0.0807	5161.61	4.0710	4.0709	-0.7984	23.90	-0.07	-0.050			
0.0814	5212.62	4.0700	4.0699	-0.7936	23.90	-0.07	-0.050			
0.0823	5264.51	4.0690	4.0689	-0.7932	23.90	-0.07	-0.050			
0.0830	5315.09	4.0680	4.0680	-0.7911	23.89	-0.08	-0.050			
0.0838	5365.54	4.0670	4.0669	-0.7883	23.89	-0.08	-0.050			
0.0846	5415.88	4.0660	4.0661	-0.7873	23.88	-0.09	-0.050			
0.0854	5465.92	4.0650	4.0652	-0.7844	23.88	-0.09	-0.050			
0.0862	5515.29	4.0640	4.0641	-0.7856	23.88	-0.09	-0.050			
0.0869	5561.60	4.0630	4.0630	-0.7945	23.88	-0.09	-0.050			
0.0877	5611.12	4.0620	4.0620	-0.8021	23.88	-0.09	-0.050			
0.0885	5661.05	4.0610	4.0612	-0.8105	23.88	-0.09	-0.050			
0.0893	5712.37	4.0600	4.0593	-0.8165	23.88	-0.09	-0.050			
0.0901	5764.72	4.0590	4.0589	-0.8232	23.87	-0.10	-0.050			
0.0909	5818.94	4.0580	4.0579	-0.8267	23.86	-0.11	-0.050			
0.0918	5872.06	4.0570	4.0563	-0.8318	23.87	-0.10	-0.050			
0.0926	5925.24	4.0560	4.0558	-0.8367	23.87	-0.10	-0.050			
0.0935	5980.84	4.0550	4.0547	-0.8371	23.88	-0.09	-0.050			
0.0943	6035.83	4.0540	4.0538	-0.8430	23.86	-0.11	-0.050			
0.0952	6091.32	4.0530	4.0535	-0.8472	23.86	-0.11	-0.050			
0.0961	6148.44	4.0520	4.0523	-0.8532	23.87	-0.10	-0.050			
0.0969	6204.33	4.0510	4.0513	-0.8536	23.88	-0.09	-0.050			
0.0978	6260.30	4.0500	4.0502	-0.8533	23.88	-0.09	-0.050			
0.0987	6315.77	4.0490	4.0491	-0.8513	23.88	-0.09	-0.050			
0.0996	6371.33	4.0480	4.0481	-0.8484	23.88	-0.09	-0.050			
0.1004	6425.88	4.0470	4.0471	-0.8449	23.88	-0.09	-0.050	0.714	0.909	
0.1012	6479.26	4.0460	4.0460	-0.8392	23.88	-0.09	-0.050			
0.1021	6531.50	4.0450	4.0450	-0.8351	23.88	-0.09	-0.050			
0.1029	6582.63	4.0440	4.0438	-0.8275	23.88	-0.09	-0.050			
0.1036	6632.30	4.0430	4.0432	-0.8191	23.87	-0.10	-0.050			
0.1044	6684.75	4.0420	4.0421	-0.8202	23.87	-0.10	-0.050			
0.1053	6737.97	4.0410	4.0411	-0.8212	23.86	-0.11	-0.050			
0.1061	6790.81	4.0400	4.0400	-0.8233	23.87	-0.10	-0.050			
0.1069	6843.36	4.0390	4.0390	-0.8240	23.87	-0.10	-0.050			
0.1077	6895.92	4.0380	4.0380	-0.8245	23.86	-0.11	-0.050			
0.1086	6949.36	4.0370	4.0369	-0.8265	23.86	-0.11	-0.050			
0.1094	7001.27	4.0360	4.0360	-0.8263	23.85	-0.12	-0.050			
0.1102	7054.53	4.0350	4.0348	-0.8278	23.86	-0.11	-0.050			
0.1111	7107.64	4.0340	4.0340	-0.8297	23.85	-0.12	-0.050			
0.1119	7160.42	4.0330	4.0331	-0.8288	23.85	-0.12	-0.050			
0.1127	7213.55	4.0320	4.0320	-0.8301	23.84	-0.13	-0.050			
0.1135	7266.66	4.0310	4.0310	-0.8314	23.84	-0.13	-0.050			
0.1144	7322.22	4.0300	4.0300	-0.8261	23.84	-0.13	-0.050			
0.1153	7377.21	4.0290	4.0290	-0.8176	23.84	-0.13	-0.050			
0.1161	7431.30	4.0280	4.0280	-0.8126	23.84	-0.13	-0.050			
0.1169	7483.36	4.0270	4.0270	-0.8071	23.84	-0.13	-0.050			
0.1177	7534.70	4.0260	4.0260	-0.7999	23.84	-0.13	-0.050			
0.1185	7586.18	4.0250	4.0251	-0.7964	23.83	-0.14	-0.050			
0.1193	7635.01	4.0240	4.0241	-0.7946	23.83	-0.14	-0.050			
0.1201	7685.18	4.0230	4.0232	-0.7933	23.83	-0.14	-0.050	0.391	0.700	
0.1209	7734.89	4.0220	4.0223	-0.7917	23.82	-0.15	-0.050			
0.1216	7782.83	4.0210	4.0213	-0.7940	23.82	-0.15	-0.050			
0.1224	7832.53	4.0200	4.0206	-0.7964	23.82	-0.15	-0.050			
0.1231	7881.31	4.0190	4.0185	-0.7953	23.82	-0.15	-0.050			
0.1239	7931.00	4.0180	4.0178	-0.8007	23.82	-0.15	-0.050			
0.1247	7981.25	4.0170	4.0172	-0.8053	23.81	-0.16	-0.050			
0.1255	8031.44	4.0160	4.0154	-0.8080	23.81	-0.16	-0.050			
0.1263	8083.15	4.0150	4.0149	-0.8149	23.80	-0.17	-0.050			
0.1271	8135.68	4.0140	4.0141	-0.8223	23.80	-0.17	-0.050			
0.1280	8189.44	4.0130	4.0131	-0.8268	23.80	-0.17	-0.050			
0.1288	8242.98	4.0120	4.0120	-0.8339	23.80	-0.17	-0.050			
0.1297	8298.24	4.0110	4.0111	-0.8416	23.80	-0.17	-0.050			
0.1305	8354.73	4.0100	4.0100	-0.8476	23.80	-0.17	-0.050			
0.1314	8412.06	4.0090	4.0090	-0.8563	23.80	-0.17	-0.050			
0.1323	8467.10	4.0080	4.0081	-0.8584	23.81	-0.16	-0.050			
0.1331	8521.48	4.0070	4.0069	-0.8577	23.80	-0.17	-0.050			
0.1340	8576.79	4.0060	4.0063	-0.8569	23.81	-0.16	-0.050			
0.1349	8631.65	4.0050	4.0050	-0.8568	23.81	-0.16	-0.050			
0.1357	8685.38	4.0040	4.0040	-0.8566	23.80	-0.17	-0.050			
0.1366	8739.25	4.0030	4.0032	-0.8584	23.81	-0.16	-0.050			
0.1374	8794.48	4.0020	4.0020	-0.8610	23.82	-0.15	-0.050			
0.1383	8848.83	4.0010	4.0009	-0.8632	23.82	-0.15	-0.050			
0.1391	8903.56	4.0000	3.9999	-0.8657	23.82	-0.15	-0.050			
0.1400	8959.57	3.9990	3.9989	-0.8688	23.82	-0.15	-0.050			
0.1409	9014.97	3.9980	3.9981	-0.8700	23.82	-0.15	-0.050			
0.1417	9070.80	3.9970	3.9969	-0.8736	23.82	-0.15	-0.050			
0.1426	9126.83	3.9960	3.9961	-0.8754	23.82	-0.15	-0.050			
0.1435	9183.68	3.9950	3.9950	-0.8790	23.84	-0.13	-0.050			
0.1444	9240.84	3.9940	3.9940	-0.8783	23.84	-0.13	-0.050			
0.1453	9297.86	3.9930	3.9933	-0.8800	23.83	-0.14	-0.050			
0.1462	9354.92	3.9920	3.9917	-0.8792	23.84	-0.13	-0.050			
0.1471	9411.73	3.9910	3.9912	-0.8772	23.83	-0.14	-0.050			
0.1479	9467.70	3.9900	3.9899	-0.8804	23.84	-0.13	-0.050			
0.1488	9524.39	3.9890	3.9891	-0.8792	23.84	-0.13	-0.050			
0.1497	9580.81	3.9880	3.9882	-0.8784	23.83	-0.14	-0.050			
0.1506	9636.90	3.9870	3.9870	-0.8786	23.83	-0.14	-0.050			
0.1514	9692.54	3.9860	3.9861	-0.8807	23.83	-0.14	-0.050			
0.1523	9748.43	3.9850	3.9851	-0.8800	23.83	-0.14	-0.050			
0.1532	9804.42	3.9840	3.9841	-0.8772	23.84	-0.13	-0.050			
0.1541	9859.97	3.9830	3.9831	-0.8772	23.83	-0.14	-0.050			
0.1550	9916.88	3.9820	3.9816	-0.8781	23.83	-0.14	-0.050			
0.1558	9972.17	3.9810	3.9809	-0.8773	23.84	-0.13	-0.050			
0.1567	10028.00	3.9800	3.9801	-0.8798	23.83	-0.14	-0.050			
0.1576	10084.38	3.9790	3.9789	-0.8808	23.83	-0.14	-0.050			
0.1585	10141.51	3.9780	3.9781	-0.8795	23.84	-0.13	-0.050			
0.1593	10197.90	3.9770	3.9771	-0.8792	23.84	-0.13	-0.050			
0.1602	10254.55	3.9760	3.9761	-0.8806	23.82	-0.15	-0.050	0.552	0.761	
0.1611	10309.70	3.9750	3.9750	-0.8861	23.83	-0.14	-0.050			
0.1620	10366.40	3.9740	3.9740	-0.8908	23.82	-0.15	-0.050			
0.1629	10423.31	3.9730	3.9730	-0.8954	23.82	-0.15	-0.050			
0.1638	10480.64	3.9720	3.9718	-0.8959	23.82	-0.15	-0.050			
0.1646	10536.88	3.9710	3.9711	-0.9024	23.82	-0.15	-0.050			
0.1655	10592.98	3.9700	3.9702	-0.9048	23.82	-0.15	-0.050			
0.1664	10650.56	3.9690	3.9691	-0.9144	23.82	-0.15	-0.050			
0.1673	10708.52	3.9680	3.9678	-0.9205	23.83	-0.14	-0.050			
0.1682	10767.91	3.9670	3.9671	-0.9263	23.83	-0.14	-0.050			
0.1692	10827.25	3.9660	3.9657	-0.9307	23.82	-0.15	-0.050			
0.1701	10888.37	3.9650	3.9652	-0.9345	23.84	-0.13	-0.050			
0.1711	10949.61	3.9640	3.9640	-0.9388	23.84	-0.13	-0.050			
0.1721	11011.95	3.9630	3.9631	-0.9380	23.82	-0.15	-0.050			
0.1730	11073.07	3.9620	3.9612	-0.9387	23.82	-0.15	-0.050			
0.1740	11134.44	3.9610	3.9609	-0.9397	23.82	-0.15	-0.050			
0.1749	11194.85	3.9600	3.9599	-0.9393	23.82	-0.15	-0.050			
0.1759	11257.66	3.9590	3.9591	-0.9403	23.82	-0.15	-0.050			
0.1768	11318.21	3.9580	3.9581	-0.9387	23.82	-0.15	-0.050			
0.1778	11378.85	3.9570	3.9572	-0.9351	23.82	-0.15	-0.050			
0.1787	11437.47	3.9560	3.9560	-0.9298	23.82	-0.15	-0.050			
0.1796	11495.93	3.9550	3.9550	-0.9224	23.82	-0.15	-0.050			
0.1805	11554.66	3.9540	3.9540	-0.9208	23.82	-0.15	-0.050	0.292	0.430	
0.1815	11613.49	3.9530	3.9530	-0.9180	23.82	-0.15	-0.050			
0.1824	11672.05	3.9520	3.9520	-0.9145	23.81	-0.16	-0.050			
0.1833	11730.54	3.9510	3.9510	-0.9023	23.82	-0.15	-0.050			
0.1842	11789.59	3.9500	3.9499	-0.8922	23.82	-0.15	-0.050			
0.1851	11846.64	3.9490	3.9489	-0.8861	23.82	-0.15	-0.050			
0.1860	11904.00	3.9480	3.9480	-0.8812	23.82	-0.15	-0.050			
0.1869	11959.98	3.9470	3.9470	-0.8787	23.82	-0.15	-0.050			
0.1877	12015.74	3.9460	3.9461	-0.8772	23.83	-0.14	-0.050			
0.1886	12071.53	3.9450	3.9450	-0.8745	23.83	-0.14	-0.050			
0.1895	12126.94	3.9440	3.9443	-0.8701	23.83	-0.14	-0.050			
0.1903	12181.94	3.9430	3.9433	-0.8696	23.83	-0.14	-0.050			
0.1912	12236.78	3.9420	3.9422	-0.8663	23.82	-0.15	-0.050			
0.1920	12289.77	3.9410	3.9409	-0.8640	23.83	-0.14	-0.050			
0.1929	12343.56	3.9400	3.9396	-0.8663	23.82	-0.15	-0.050			
0.1937	12397.67	3.9390	3.9388	-0.8702	23.82	-0.15	-0.050			
0.1946	12451.59	3.9380	3.9378	-0.8716	23.81	-0.16	-0.050			
0.1954	12507.08	3.9370	3.9370	-0.8759	23.80	-0.17	-0.050			
0.1963	12562.31	3.9360	3.9361	-0.8786	23.81	-0.16	-0.050			
0.1972	12618.64	3.9350	3.9352	-0.8849	23.80	-0.17	-0.050			
0.1980	12674.98	3.9340	3.9337	-0.8905	23.80	-0.17	-0.050			
0.1990	12733.34	3.9330	3.9332	-0.8966	23.79	-0.18	-0.050			
0.1999	12792.30	3.9320	3.9322	-0.9063	23.78	-0.19	-0.050	0.396	0.589	
0.2008	12852.98	3.9310	3.9310	-0.9146	23.78	-0.19	-0.050			
0.2018	12912.99	3.9300	3.9301	-0.9199	23.78	-0.19	-0.050			
0.2027	12972.21	3.9290	3.9292	-0.9197	23.78	-0.19	-0.050			
0.2036	13030.35	3.9280	3.9282	-0.9181	23.78	-0.19	-0.050			
0.2045	13089.53	3.9270	3.9271	-0.9177	23.77	-0.20	-0.050			
0.2055	13148.82	3.9260	3.9262	-0.9192	23.76	-0.21	-0.050			
0.2064	13208.00	3.9250	3.9252	-0.9201	23.77	-0.20	-0.050			
0.2073	13267.43	3.9240	3.9242	-0.9186	23.76	-0.21	-0.050			
0.2082	13326.13	3.9230	3.9231	-0.9200	23.76	-0.21	-0.050			
0.2091	13385.59	3.9220	3.9221	-0.9187	23.76	-0.21	-0.050			
0.2101	13443.77	3.9210	3.9209	-0.9145	23.76	-0.21	-0.050			
0.2110	13502.98	3.9200	3.9201	-0.9114	23.75	-0.22	-0.050			
0.2119	13561.40	3.9190	3.9188	-0.9092	23.74	-0.23	-0.050			
0.2128	13619.55	3.9180	3.9182	-0.9088	23.74	-0.23	-0.050			
0.2137	13677.72	3.9170	3.9167	-0.9058	23.74	-0.23	-0.050			
0.2146	13735.24	3.9160	3.9159	-0.9049	23.74	-0.23	-0.050			
0.2155	13791.54	3.9150	3.9148	-0.9059	23.74	-0.23	-0.050			
0.2164	13849.23	3.9140	3.9141	-0.9077	23.74	-0.23	-0.050			
0.2173	13906.89	3.9130	3.9132	-0.9083	23.75	-0.22	-0.050			
0.2182	13965.08	3.9120	3.9121	-0.9097	23.75	-0.22	-0.050			
0.2191	14023.16	3.9110	3.9110	-0.9096	23.74	-0.23	-0.050			
0.2200	14081.33	3.9100	3.9098	-0.9091	23.75	-0.22	-0.050	0.787	0.951	
0.2209	14140.33	3.9090	3.9091	-0.9085	23.76	-0.21	-0.050			
0.2219	14198.59	3.9080	3.9081	-0.9074	23.76	-0.21	-0.050			
0.2228	14257.09	3.9070	3.9070	-0.9066	23.76	-0.21	-0.050			
0.2237	14315.46	3.9060	3.9059	-0.9052	23.77	-0.20	-0.050			
0.2246	14373.16	3.9050	3.9052	-0.9043	23.78	-0.19	-0.050			
0.2255	14432.13	3.9040	3.9040	-0.9039	23.78	-0.19	-0.050			
0.2264	14489.63	3.9030	3.9031	-0.9026	23.79	-0.18	-0.050			
0.2273	14547.18	3.9020	3.9021	-0.9021	23.80	-0.17	-0.050			
0.2282	14604.83	3.9010	3.9011	-0.9078	23.80	-0.17	-0.050			
0.2291	14662.44	3.9000	3.9001	-0.9113	23.82	-0.15	-0.050			
0.2300	14720.07	3.8990	3.8988	-0.9090	23.83	-0.14	-0.050			
0.2309	14778.68	3.8980	3.8979	-0.9091	23.84	-0.13	-0.050			
0.2318	14836.43	3.8970	3.8967	-0.9072	23.85	-0.12	-0.050			
0.2327	14894.15	3.8960	3.8958	-0.9064	23.86	-0.11	-0.050			
0.2336	14952.70	3.8950	3.8950	-0.9003	23.86	-0.11	-0.050			
0.2345	15010.81	3.8940	3.8939	-0.9007	23.88	-0.09	-0.050			
0.2355	15069.74	3.8930	3.8930	-0.8993	23.89	-0.08	-0.050			
0.2364	15128.02	3.8920	3.8919	-0.8975	23.90	-0.07	-0.050			
0.2373	15186.23	3.8910	3.8914	-0.8969	23.91	-0.06	-0.050			
0.2382	15244.49	3.8900	3.8901	-0.8939	23.93	-0.04	-0.050			
0.2391	15302.23	3.8890	3.8891	-0.8893	23.95	-0.02	-0.050			
0.2400	15359.55	3.8880	3.8881	-0.8848	23.96	-0.01	-0.050	0.386	0.494	
0.2409	15416.13	3.8870	3.8870	-0.8796	23.96	-0.01	-0.050			
0.2418	15472.47	3.8860	3.8861	-0.8745	23.98	0.01	-0.050			
0.2426	15528.09	3.8850	3.8851	-0.8676	23.98	0.01	-0.050			
0.2435	15583.09	3.8840	3.8841	-0.8613	23.98	0.01	-0.050			
0.2443	15637.24	3.8830	3.8827	-0.8532	24.00	0.03	-0.050			
0.2452	15690.59	3.8820	3.8820	-0.8484	24.00	0.03	-0.050			
0.2460	15743.28	3.8810	3.8811	-0.8419	24.00	0.03	-0.050			
0.2468	15796.62	3.8800	3.8800	-0.8399	24.00	0.03	-0.050			
0.2477	15850.51	3.8790	3.8790	-0.8384	24.00	0.03	-0.050			
0.2485	15904.06	3.8780	3.8781	-0.8358	24.00	0.03	-0.050			
0.2493	15958.18	3.8770	3.8770	-0.8351	24.02	0.05	-0.050			
0.2502	16011.69	3.8760	3.8760	-0.8295	24.02	0.05	-0.050			
0.2510	16064.96	3.8750	3.8749	-0.8280	24.01	0.04	-0.050			
0.2518	16118.38	3.8740	3.8739	-0.8234	24.00	0.03	-0.050			
0.2527	16170.29	3.8730	3.8729	-0.8193	24.00	0.03	-0.050			
0.2535	16222.44	3.8720	3.8720	-0.8156	24.00	0.03	-0.050			
0.2543	16276.51	3.8710	3.8709	-0.8075	24.00	0.03	-0.050			
0.2551	16328.26	3.8700	3.8701	-0.8022	24.00	0.03	-0.050			
0.2560	16381.51	3.8690	3.8691	-0.7924	24.00	0.03	-0.050			
0.2568	16432.87	3.8680	3.8679	-0.7800	24.00	0.03	-0.050			
0.2575	16483.00	3.8670	3.8669	-0.7708	24.00	0.03	-0.050			
0.2583	16532.88	3.8660	3.8661	-0.7638	24.00	0.03	-0.050			
0.2591	16580.84	3.8650	3.8651	-0.7544	24.00	0.03	-0.050			
0.2598	16628.93	3.8640	3.8641	-0.7456	24.00	0.03	-0.050			
0.2605	16674.46	3.8630	3.8631	-0.7427	24.00	0.03	-0.050	0.685	0.896	
0.2613	16720.15	3.8620	3.8622	-0.7352	23.99	0.02	-0.050			
0.2620	16765.83	3.8610	3.8614	-0.7318	23.98	0.01	-0.050			
0.2627	16810.18	3.8600	3.8595	-0.7266	23.98	0.01	-0.050			
0.2634	16855.68	3.8590	3.8590	-0.7245	23.98	0.01	-0.050			
0.2641	16900.49	3.8580	3.8577	-0.7250	23.98	0.01	-0.050			
0.2648	16945.80	3.8570	3.8570	-0.7257	23.98	0.01	-0.050			
0.2655	16990.66	3.8560	3.8559	-0.7253	23.97	-0.00	-0.050			
0.2662	17036.17	3.8550	3.8547	-0.7284	23.96	-0.01	-0.050			
0.2669	17082.72	3.8540	3.8539	-0.7303	23.96	-0.01	-0.050			
0.2677	17130.21	3.8530	3.8532	-0.7302	23.96	-0.01	-0.050			
0.2684	17178.71	3.8520	3.8521	-0.7322	23.95	-0.02	-0.050			
0.2692	17227.43	3.8510	3.8511	-0.7368	23.94	-0.03	-0.050			
0.2699	17275.13	3.8500	3.8501	-0.7354	23.94	-0.03	-0.050			
0.2707	17324.78	3.8490	3.8492	-0.7392	23.94	-0.03	-0.050			
0.2714	17372.57	3.8480	3.8481	-0.7387	23.94	-0.03	-0.050			
0.2722	17419.28	3.8470	3.8472	-0.7373	23.93	-0.04	-0.050			
0.2729	17466.45	3.8460	3.8461	-0.7347	23.92	-0.05	-0.050			
0.2736	17513.55	3.8450	3.8451	-0.7310	23.92	-0.05	-0.050			
0.2744	17560.09	3.8440	3.8439	-0.7287	23.92	-0.05	-0.050			
0.2751	17605.95	3.8430	3.8429	-0.7246	23.92	-0.05	-0.050			
0.2758	17652.67	3.8420	3.8421	-0.7233	23.92	-0.05	-0.050			
0.2765	17698.79	3.8410	3.8411	-0.7205	23.92	-0.05	-0.050			
0.2773	17744.26	3.8400	3.8396	-0.7186	23.91	-0.06	-0.050			
0.2780	17790.48	3.8390	3.8387	-0.7159	23.90	-0.07	-0.050			
0.2787	17836.04	3.8380	3.8377	-0.7121	23.90	-0.07	-0.050			
0.2794	17880.78	3.8370	3.8372	-0.7114	23.90	-0.07	-0.050			
0.2801	17926.21	3.8360	3.8360	-0.7106	23.90	-0.07	-0.050	0.501	0.660	
0.2808	17971.59	3.8350	3.8351	-0.7103	23.89	-0.08	-0.050			
0.2815	18017.16	3.8340	3.8340	-0.7098	23.89	-0.08	-0.050			
0.2822	18063.20	3.8330	3.8331	-0.7108	23.88	-0.09	-0.050			
0.2830	18108.93	3.8320	3.8318	-0.7080	23.88	-0.09	-0.050			
0.2836	18153.31	3.8310	3.8306	-0.7084	23.86	-0.11	-0.050			
0.2844	18198.78	3.8300	3.8300	-0.7076	23.86	-0.11	-0.050			
0.2851	18243.55	3.8290	3.8290	-0.7075	23.86	-0.11	-0.050			
0.2858	18288.05	3.8280	3.8281	-0.7074	23.85	-0.12	-0.050			
0.2865	18333.23	3.8270	3.8272	-0.7070	23.84	-0.13	-0.050			
0.2872	18378.62	3.8260	3.8261	-0.7078	23.84	-0.13	-0.050			
0.2879	18424.29	3.8250	3.8252	-0.7098	23.84	-0.13	-0.050			
0.2886	18468.72	3.8240	3.8237	-0.7135	23.84	-0.13	-0.050			
0.2893	18514.69	3.8230	3.8227	-0.7133	23.83	-0.14	-0.050			
0.2900	18560.43	3.8220	3.8219	-0.7153	23.82	-0.15	-0.050			
0.2907	18606.36	3.8210	3.8210	-0.7170	23.82	-0.15	-0.050			
0.2914	18652.64	3.8200	3.8202	-0.7172	23.82	-0.15	-0.050			
0.2922	18698.53	3.8190	3.8189	-0.7184	23.81	-0.16	-0.050			
0.2929	18745.55	3.8180	3.8181	-0.7179	23.80	-0.17	-0.050			
0.2936	18790.85	3.8170	3.8168	-0.7176	23.80	-0.17	-0.050			
0.2943	18837.38	3.8160	3.8160	-0.7191	23.79	-0.18	-0.050			
0.2951	18883.47	3.8150	3.8149	-0.7199	23.78	-0.19	-0.050			
0.2958	18929.62	3.8140	3.8143	-0.7206	23.78	-0.19	-0.050			
0.2965	18976.27	3.8130	3.8133	-0.7201	23.78	-0.19	-0.050			
0.2972	19021.69	3.8120	3.8121	-0.7233	23.77	-0.20	-0.050			
0.2979	19067.20	3.8110	3.8109	-0.7239	23.78	-0.19	-0.050			
0.2987	19113.64	3.8100	3.8099	-0.7247	23.76	-0.21	-0.050			
0.2994	19160.30	3.8090	3.8091	-0.7263	23.76	-0.21	-0.050			
0.3001	19206.34	3.8080	3.8081	-0.7267	23.76	-0.21	-0.050	0.468	0.671	
0.3008	19252.84	3.8070	3.8069	-0.7283	23.76	-0.21	-0.050			
0.3016	19300.24	3.8060	3.8061	-0.7276	23.76	-0.21	-0.050			
0.3023	19346.54	3.8050	3.8049	-0.7276	23.76	-0.21	-0.050			
0.3030	19392.28	3.8040	3.8040	-0.7280	23.76	-0.21	-0.050			
0.3037	19438.74	3.8030	3.8028	-0.7344	23.76	-0.21	-0.050			
0.3045	19486.08	3.8020	3.8022	-0.7382	23.76	-0.21	-0.050			
0.3052	19532.87	3.8010	3.8011	-0.7404	23.78	-0.19	-0.050			
0.3059	19580.59	3.8000	3.8002	-0.7433	23.77	-0.20	-0.050			
0.3067	19628.59	3.7990	3.7990	-0.7460	23.78	-0.19	-0.050			
0.3074	19676.28	3.7980	3.7979	-0.7479	23.78	-0.19	-0.050			
0.3082	19723.78	3.7970	3.7969	-0.7502	23.78	-0.19	-0.050			
0.3089	19771.45	3.7960	3.7959	-0.7543	23.78	-0.19	-0.050			
0.3097	19819.85	3.7950	3.7951	-0.7581	23.78	-0.19	-0.050			
0.3104	19868.44	3.7940	3.7939	-0.7603	23.78	-0.19	-0.050			
0.3112	19917.19	3.7930	3.7931	-0.7633	23.79	-0.18	-0.050			
0.3120	19965.43	3.7920	3.7921	-0.7646	23.80	-0.17	-0.050			
0.3127	20015.81	3.7910	3.7910	-0.7688	23.80	-0.17	-0.050			
0.3135	20065.07	3.7900	3.7899	-0.7719	23.80	-0.17	-0.050			
0.3143	20115.36	3.7890	3.7890	-0.7757	23.80	-0.17	-0.050			
0.3151	20165.22	3.7880	3.7881	-0.7781	23.80	-0.17	-0.050			
0.3159	20215.13	3.7870	3.7871	-0.7811	23.80	-0.17	-0.050			
0.3167	20265.62	3.7860	3.7861	-0.7852	23.80	-0.17	-0.050			
0.3174	20315.79	3.7850	3.7850	-0.7860	23.81	-0.16	-0.050			
0.3182	20366.01	3.7840	3.7840	-0.7855	23.82	-0.15	-0.050			
0.3190	20415.88	3.7830	3.7831	-0.7857	23.83	-0.14	-0.050			
0.3198	20466.27	3.7820	3.7820	-0.7906	23.84	-0.13	-0.050			
0.3206	20517.03	3.7810	3.7809	-0.7934	23.84	-0.13	-0.050	0.510	0.600	
0.3214	20567.47	3.7800	3.7801	-0.7973	23.84	-0.13	-0.050			
0.3222	20618.77	3.7790	3.7790	-0.8005	23.85	-0.12	-0.050			
0.3230	20670.67	3.7780	3.7779	-0.8003	23.86	-0.11	-0.050			
0.3238	20723.11	3.7770	3.7770	-0.7966	23.86	-0.11	-0.050			
0.3246	20775.24	3.7760	3.7759	-0.7922	23.86	-0.11	-0.050			
0.3254	20826.36	3.7750	3.7748	-0.7908	23.86	-0.11	-0.050			
0.3262	20877.34	3.7740	3.7739	-0.7912	23.86	-0.11	-0.050			
0.3270	20928.31	3.7730	3.7730	-0.7909	23.87	-0.10	-0.050			
0.3278	20977.81	3.7720	3.7722	-0.7928	23.88	-0.09	-0.050			
0.3286	21027.97	3.7710	3.7711	-0.7947	23.87	-0.10	-0.050			
0.3293	21077.74	3.7700	3.7703	-0.7956	23.88	-0.09	-0.050			
0.3301	21127.00	3.7690	3.7694	-0.8017	23.87	-0.10	-0.050			
0.3309	21176.09	3.7680	3.7685	-0.8099	23.87	-0.10	-0.050			
0.3317	21226.93	3.7670	3.7668	-0.8157	23.86	-0.11	-0.050			
0.3325	21277.51	3.7660	3.7655	-0.8214	23.85	-0.12	-0.050			
0.3333	21329.89	3.7650	3.7649	-0.8291	23.85	-0.12	-0.050			
0.3341	21382.73	3.7640	3.7640	-0.8382	23.84	-0.13	-0.050			
0.3349	21435.78	3.7630	3.7626	-0.8489	23.84	-0.13	-0.050			
0.3358	21488.98	3.7620	3.7621	-0.8567	23.84	-0.13	-0.050			
0.3366	21544.81	3.7610	3.7611	-0.8681	23.84	-0.13	-0.050			
0.3375	21601.59	3.7600	3.7600	-0.8788	23.83	-0.14	-0.050			
0.3384	21659.52	3.7590	3.7590	-0.8914	23.83	-0.14	-0.050			
0.3394	21718.65	3.7580	3.7581	-0.9038	23.82	-0.15	-0.050			
0.3403	21778.07	3.7570	3.7570	-0.9179	23.82	-0.15	-0.050	0.423	0.675	
0.3412	21838.98	3.7560	3.7559	-0.9253	23.82	-0.15	-0.050			
0.3422	21898.17	3.7550	3.7552	-0.9323	23.80	-0.17	-0.050			
0.3431	21958.18	3.7540	3.7538	-0.9367	23.80	-0.17	-0.050			
0.3440	22017.20	3.7530	3.7531	-0.9456	23.80	-0.17	-0.050			
0.3450	22078.02	3.7520	3.7519	-0.9511	23.79	-0.18	-0.050			
0.3459	22138.95	3.7510	3.7512	-0.9571	23.78	-0.19	-0.050			
0.3469	22200.33	3.7500	3.7501	-0.9636	23.78	-0.19	-0.050			
0.3478	22261.76	3.7490	3.7488	-0.9702	23.78	-0.19	-0.050			
0.3488	22323.74	3.7480	3.7481	-0.9768	23.77	-0.20	-0.050			
0.3498	22386.32	3.7470	3.7470	-0.9867	23.76	-0.21	-0.050			
0.3508	22449.86	3.7460	3.7460	-0.9957	23.75	-0.22	-0.050			
0.3518	22514.32	3.7450	3.7451	-1.0020	23.74	-0.23	-0.050			
0.3528	22577.35	3.7440	3.7440	-1.0106	23.74	-0.23	-0.050			
0.3538	22642.08	3.7430	3.7431	-1.0190	23.73	-0.24	-0.050			
0.3548	22707.18	3.7420	3.7420	-1.0282	23.74	-0.23	-0.050			
0.3558	22773.57	3.7410	3.7412	-1.0381	23.72	-0.25	-0.050			
0.3569	22840.65	3.7400	3.7401	-1.0473	23.72	-0.25	-0.050			
0.3579	22908.60	3.7390	3.7390	-1.0572	23.72	-0.25	-0.050			
0.3590	22976.30	3.7380	3.7383	-1.0636	23.71	-0.26	-0.050			
0.3601	23044.98	3.7370	3.7371	-1.0726	23.70	-0.27	-0.050	0.560	0.768	
0.3612	23113.86	3.7360	3.7360	-1.0836	23.70	-0.27	-0.050			
0.3622	23183.45	3.7350	3.7350	-1.0916	23.70	-0.27	-0.050			
0.3633	23253.60	3.7340	3.7339	-1.0990	23.70	-0.27	-0.050			
0.3644	23320.74	3.7330	3.7332	-1.1153	23.70	-0.27	-0.050			
0.3655	23391.29	3.7320	3.7321	-1.1347	23.70	-0.27	-0.050			
0.3666	23462.84	3.7310	3.7311	-1.1524	23.70	-0.27	-0.050			
0.3678	23536.75	3.7300	3.7300	-1.1659	23.69	-0.28	-0.050			
0.3689	23611.96	3.7290	3.7291	-1.1833	23.69	-0.28	-0.050			
0.3701	23687.99	3.7280	3.7280	-1.1973	23.69	-0.28	-0.050			
0.3714	23766.62	3.7270	3.7270	-1.2105	23.68	-0.29	-0.050			
0.3726	23845.65	3.7260	3.7261	-1.2229	23.68	-0.29	-0.050			
0.3738	23926.16	3.7250	3.7249	-1.2330	23.67	-0.30	-0.050			
0.3751	24006.72	3.7240	3.7237	-1.2395	23.66	-0.31	-0.050			
0.3764	24088.78	3.7230	3.7234	-1.2494	23.67	-0.30	-0.050			
0.3777	24171.28	3.7220	3.7223	-1.2548	23.68	-0.29	-0.050			
0.3790	24253.11	3.7210	3.7212	-1.2617	23.68	-0.29	-0.050			
0.3802	24335.92	3.7200	3.7201	-1.2664	23.70	-0.27	-0.050	0.366	0.633	
0.3815	24418.27	3.7190	3.7190	-1.2706	23.70	-0.27	-0.050			
0.3828	24499.91	3.7180	3.7181	-1.2704	23.70	-0.27	-0.050			
0.3841	24580.13	3.7170	3.7171	-1.2760	23.70	-0.27	-0.050			
0.3853	24661.06	3.7160	3.7161	-1.2770	23.72	-0.25	-0.050			
0.3866	24741.44	3.7150	3.7150	-1.2803	23.72	-0.25	-0.050			
0.3878	24821.10	3.7140	3.7140	-1.2816	23.72	-0.25	-0.050			
0.3890	24899.07	3.7130	3.7130	-1.2787	23.73	-0.24	-0.050			
0.3904	24983.75	3.7120	3.7119	-1.2802	23.74	-0.23	-0.050			
0.3917	25067.79	3.7110	3.7110	-1.2802	23.74	-0.23	-0.050			
0.3930	25152.34	3.7100	3.7098	-1.2739	23.75	-0.22	-0.050			
0.3943	25235.95	3.7090	3.7088	-1.2725	23.76	-0.21	-0.050			
0.3956	25317.94	3.7080	3.7079	-1.2727	23.76	-0.21	-0.050			
0.3969	25400.09	3.7070	3.7071	-1.2746	23.76	-0.21	-0.050			
0.3981	25480.22	3.7060	3.7060	-1.2796	23.77	-0.20	-0.050			
0.3994	25561.25	3.7050	3.7053	-1.2856	23.78	-0.19	-0.050			
0.4007	25642.01	3.7040	3.7043	-1.2909	23.78	-0.19	-0.050	0.467	0.732	
0.4019	25722.74	3.7030	3.7031	-1.2972	23.80	-0.17	-0.050			
0.4032	25802.71	3.7020	3.7024	-1.3081	23.80	-0.17	-0.050			
0.4044	25883.61	3.7010	3.7006	-1.3168	23.80	-0.17	-0.050			
0.4057	25965.22	3.7000	3.6998	-1.3318	23.80	-0.17	-0.050			
0.4070	26049.01	3.6990	3.6989	-1.3429	23.80	-0.17	-0.050			
0.4083	26132.54	3.6980	3.6981	-1.3615	23.80	-0.17	-0.050			
0.4097	26218.10	3.6970	3.6972	-1.3759	23.80	-0.17	-0.050			
0.4110	26306.14	3.6960	3.6958	-1.3984	23.80	-0.17	-0.050			
0.4125	26396.81	3.6950	3.6951	-1.4195	23.80	-0.17	-0.050			
0.4139	26489.01	3.6940	3.6942	-1.4469	23.80	-0.17	-0.050			
0.4154	26586.37	3.6930	3.6927	-1.4742	23.80	-0.17	-0.050			
0.4169	26683.99	3.6920	3.6921	-1.4994	23.79	-0.18	-0.050			
0.4185	26783.79	3.6910	3.6911	-1.5203	23.78	-0.19	-0.050			
0.4200	26881.83	3.6900	3.6900	-1.5338	23.78	-0.19	-0.050			
0.4216	26980.56	3.6890	3.6888	-1.5469	23.77	-0.20	-0.050			
0.4231	27080.17	3.6880	3.6880	-1.5585	23.77	-0.20	-0.050			
0.4247	27180.84	3.6870	3.6872	-1.5719	23.76	-0.21	-0.050			
0.4263	27280.82	3.6860	3.6861	-1.5863	23.76	-0.21	-0.050			
0.4278	27381.22	3.6850	3.6849	-1.6048	23.76	-0.21	-0.050			
0.4294	27480.88	3.6840	3.6841	-1.6335	23.74	-0.23	-0.050			
0.4310	27584.97	3.6830	3.6830	-1.6546	23.75	-0.22	-0.050			
0.4327	27690.04	3.6820	3.6822	-1.6788	23.74	-0.23	-0.050			
0.4343	27796.83	3.6810	3.6809	-1.7036	23.74	-0.23	-0.050			
0.4360	27903.97	3.6800	3.6798	-1.7310	23.74	-0.23	-0.050			
0.4377	28014.13	3.6790	3.6793	-1.7656	23.74	-0.23	-0.050			
0.4395	28125.92	3.6780	3.6781	-1.7956	23.74	-0.23	-0.050	0.542	0.792	
0.4413	28242.12	3.6770	3.6769	-1.8254	23.74	-0.23	-0.050			
0.4432	28362.20	3.6760	3.6758	-1.8524	23.74	-0.23	-0.050			
0.4451	28484.18	3.6750	3.6750	-1.8781	23.75	-0.22	-0.050			
0.4470	28608.07	3.6740	3.6741	-1.8995	23.76	-0.21	-0.050			
0.4490	28735.12	3.6730	3.6728	-1.9229	23.77	-0.20	-0.050			
0.4510	28860.95	3.6720	3.6720	-1.9391	23.79	-0.18	-0.050			
0.4530	28990.89	3.6710	3.6709	-1.9515	23.79	-0.18	-0.050			
0.4551	29124.34	3.6700	3.6700	-1.9463	23.80	-0.17	-0.050			
0.4571	29254.67	3.6690	3.6692	-1.9396	23.82	-0.15	-0.050			
0.4591	29379.75	3.6680	3.6681	-1.9354	23.82	-0.15	-0.050			
0.4610	29503.48	3.6670	3.6671	-1.9318	23.84	-0.13	-0.050	0.351	0.620	
0.4629	29625.00	3.6660	3.6661	-1.9251	23.84	-0.13	-0.050			
0.4647	29743.78	3.6650	3.6650	-1.9273	23.85	-0.12	-0.050			
0.4666	29863.38	3.6640	3.6641	-1.9285	23.86	-0.11	-0.050			
0.4685	29983.03	3.6630	3.6632	-1.9420	23.86	-0.11	-0.050			
0.4703	30101.80	3.6620	3.6623	-1.9441	23.86	-0.11	-0.050			
0.4722	30221.32	3.6610	3.6606	-1.9627	23.85	-0.12	-0.050			
0.4741	30341.81	3.6600	3.6597	-1.9800	23.84	-0.13	-0.050			
0.4760	30463.08	3.6590	3.6587	-1.9967	23.82	-0.15	-0.050			
0.4780	30589.80	3.6580	3.6579	-2.0277	23.81	-0.16	-0.050			
0.4800	30720.66	3.6570	3.6571	-2.0564	23.80	-0.17	-0.050	0.650	0.841	
0.4821	30852.76	3.6560	3.6562	-2.0901	23.80	-0.17	-0.050			
0.4842	30988.05	3.6550	3.6551	-2.1252	23.80	-0.17	-0.050			
0.4864	31127.06	3.6540	3.6541	-2.1587	23.80	-0.17	-0.050			
0.4886	31268.36	3.6530	3.6531	-2.1962	23.80	-0.17	-0.050			
0.4908	31413.64	3.6520	3.6520	-2.2331	23.79	-0.18	-0.050			
0.4931	31555.72	3.6510	3.6510	-2.2707	23.78	-0.19	-0.050			
0.4954	31706.99	3.6500	3.6499	-2.3175	23.80	-0.17	-0.050			
0.4977	31852.96	3.6490	3.6492	-2.3603	23.78	-0.19	-0.050			
0.5000	31999.43	3.6480	3.6479	-2.3995	23.78	-0.19	-0.050			
0.5024	32153.16	3.6470	3.6469	-2.4453	23.78	-0.19	-0.050			
0.5048	32309.17	3.6460	3.6460	-2.4863	23.78	-0.19	-0.050			
0.5073	32469.33	3.6450	3.6450	-2.5230	23.76	-0.21	-0.050			
0.5099	32633.65	3.6440	3.6439	-2.5562	23.74	-0.23	-0.050			
0.5125	32801.25	3.6430	3.6429	-2.5840	23.73	-0.24	-0.050			
0.5152	32970.36	3.6420	3.6417	-2.6002	23.72	-0.25	-0.050			
0.5180	33148.90	3.6410	3.6414	-2.6072	23.71	-0.26	-0.050			
0.5207	33325.81	3.6400	3.6401	-2.6053	23.71	-0.26	-0.050	0.485	0.664	
0.5236	33507.71	3.6390	3.6390	-2.5797	23.70	-0.27	-0.050			
0.5262	33678.55	3.6380	3.6380	-2.5508	23.70	-0.27	-0.050			
0.5288	33844.31	3.6370	3.6369	-2.5266	23.70	-0.27	-0.050			
0.5313	34005.39	3.6360	3.6361	-2.4961	23.72	-0.25	-0.050			
0.5337	34158.61	3.6350	3.6351	-2.4540	23.72	-0.25	-0.050			
0.5360	34306.32	3.6340	3.6341	-2.4097	23.75	-0.22	-0.050			
0.5382	34446.78	3.6330	3.6333	-2.3578	23.77	-0.20	-0.050			
0.5405	34593.76	3.6320	3.6322	-2.3437	23.78	-0.19	-0.050	0.450	0.625	
0.5427	34734.70	3.6310	3.6314	-2.3227	23.80	-0.17	-0.050			
0.5450	34883.12	3.6300	3.6296	-2.3183	23.80	-0.17	-0.050			
0.5472	35023.28	3.6290	3.6287	-2.3110	23.80	-0.17	-0.050			
0.5495	35167.75	3.6280	3.6278	-2.3133	23.78	-0.19	-0.050			
0.5518	35312.87	3.6270	3.6265	-2.3139	23.76	-0.21	-0.050			
0.5541	35461.37	3.6260	3.6260	-2.3079	23.76	-0.21	-0.050			
0.5564	35610.51	3.6250	3.6250	-2.3042	23.76	-0.21	-0.050			
0.5588	35761.47	3.6240	3.6241	-2.3062	23.74	-0.23	-0.050			
0.5612	35913.87	3.6230	3.6228	-2.3104	23.72	-0.25	-0.050	0.472	0.635	
0.5636	36068.80	3.6220	3.6216	-2.3156	23.72	-0.25	-0.050			
0.5660	36224.30	3.6210	3.6211	-2.3213	23.71	-0.26	-0.050			
0.5684	36378.82	3.6200	3.6199	-2.3136	23.71	-0.26	-0.050			
0.5707	36522.91	3.6190	3.6190	-2.2952	23.72	-0.25	-0.050			
0.5729	36664.48	3.6180	3.6181	-2.2747	23.71	-0.26	-0.050			
0.5751	36805.81	3.6170	3.6171	-2.2670	23.72	-0.25	-0.050			
0.5773	36945.59	3.6160	3.6156	-2.2592	23.72	-0.25	-0.050			
0.5795	37087.93	3.6150	3.6151	-2.2507	23.72	-0.25	-0.050	0.356	0.646	
0.5817	37230.64	3.6140	3.6139	-2.2418	23.74	-0.23	-0.050			
0.5840	37374.43	3.6130	3.6131	-2.2306	23.74	-0.23	-0.050			
0.5862	37518.84	3.6120	3.6121	-2.2201	23.75	-0.22	-0.050			
0.5885	37662.06	3.6110	3.6106	-2.2087	23.76	-0.21	-0.050			
0.5907	37804.70	3.6100	3.6096	-2.1921	23.78	-0.19	-0.050			
0.5930	37949.24	3.6090	3.6089	-2.1722	23.78	-0.19	-0.050			
0.5952	38093.54	3.6080	3.6082	-2.1529	23.78	-0.19	-0.050			
0.5975	38238.50	3.6070	3.6074	-2.1134	23.80	-0.17	-0.050			
0.5997	38378.29	3.6060	3.6063	-2.0643	23.79	-0.18	-0.050	0.452	0.705	
0.6018	38512.79	3.6050	3.6050	-2.0221	23.80	-0.17	-0.050			
0.6038	38644.32	3.6040	3.6041	-1.9810	23.80	-0.17	-0.050			
0.6058	38770.63	3.6030	3.6031	-1.9495	23.82	-0.15	-0.050			
0.6077	38890.56	3.6020	3.6021	-1.9090	23.82	-0.15	-0.050			
0.6095	39009.70	3.6010	3.6012	-1.8700	23.83	-0.14	-0.050			
0.6113	39121.70	3.6000	3.6003	-1.8349	23.84	-0.13	-0.050			
0.6129	39228.05	3.5990	3.5991	-1.7996	23.84	-0.13	-0.050			
0.6146	39334.48	3.5980	3.5978	-1.7757	23.85	-0.12	-0.050			
0.6162	39439.89	3.5970	3.5967	-1.7607	23.85	-0.12	-0.050			
0.6179	39546.89	3.5960	3.5957	-1.7533	23.86	-0.11	-0.050			
0.6196	39656.55	3.5950	3.5951	-1.7533	23.86	-0.11	-0.050	0.523	0.626	
0.6213	39765.74	3.5940	3.5940	-1.7486	23.87	-0.10	-0.050			
0.6231	39876.61	3.5930	3.5932	-1.7496	23.88	-0.09	-0.050			
0.6248	39989.78	3.5920	3.5920	-1.7454	23.88	-0.09	-0.050			
0.6266	40102.34	3.5910	3.5909	-1.7505	23.89	-0.08	-0.050			
0.6284	40218.04	3.5900	3.5900	-1.7597	23.90	-0.07	-0.050			
0.6303	40336.03	3.5890	3.5890	-1.7752	23.90	-0.07	-0.050			
0.6321	40451.50	3.5880	3.5880	-1.7790	23.92	-0.05	-0.050			
0.6339	40567.35	3.5870	3.5871	-1.7781	23.92	-0.05	-0.050			
0.6356	40679.92	3.5860	3.5861	-1.7694	23.92	-0.05	-0.050			
0.6374	40792.32	3.5850	3.5851	-1.7638	23.93	-0.04	-0.050			
0.6391	40904.18	3.5840	3.5840	-1.7596	23.94	-0.03	-0.050			
0.6408	41014.32	3.5830	3.5830	-1.7550	23.94	-0.03	-0.050	0.671	0.795	
0.6426	41123.48	3.5820	3.5822	-1.7660	23.93	-0.04	-0.050			
0.6443	41234.03	3.5810	3.5811	-1.7757	23.94	-0.03	-0.050			
0.6460	41346.26	3.5800	3.5798	-1.7817	23.94	-0.03	-0.050			
0.6478	41459.18	3.5790	3.5791	-1.7860	23.94	-0.03	-0.050			
0.6496	41574.91	3.5780	3.5780	-1.7865	23.94	-0.03	-0.050			
0.6514	41690.94	3.5770	3.5771	-1.7861	23.94	-0.03	-0.050			
0.6532	41806.95	3.5760	3.5760	-1.7902	23.94	-0.03	-0.050			
0.6551	41925.40	3.5750	3.5748	-1.7905	23.94	-0.03	-0.050			
0.6569	42042.83	3.5740	3.5738	-1.7869	23.94	-0.03	-0.050			
0.6587	42158.65	3.5730	3.5726	-1.7825	23.95	-0.02	-0.050			
0.6605	42274.36	3.5720	3.5723	-1.7715	23.94	-0.03	-0.050	0.294	0.509	
0.6624	42390.86	3.5710	3.5711	-1.7654	23.96	-0.01	-0.050			
0.6641	42505.39	3.5700	3.5701	-1.7516	23.96	-0.01	-0.050			
0.6659	42618.80	3.5690	3.5692	-1.7377	23.97	0.00	-0.050			
0.6677	42732.19	3.5680	3.5680	-1.7228	23.98	0.01	-0.050			
0.6695	42844.85	3.5670	3.5670	-1.6972	23.98	0.01	-0.050			
0.6712	42956.26	3.5660	3.5659	-1.6634	23.99	0.02	-0.050			
0.6729	43062.97	3.5650	3.5648	-1.6303	24.00	0.03	-0.050			
0.6745	43166.63	3.5640	3.5640	-1.5918	24.00	0.03	-0.050			
0.6760	43265.48	3.5630	3.5630	-1.5525	24.00	0.03	-0.050			
0.6775	43362.14	3.5620	3.5621	-1.5183	24.01	0.04	-0.050			
0.6791	43459.81	3.5610	3.5610	-1.4942	24.02	0.05	-0.050			
0.6805	43553.75	3.5600	3.5600	-1.4725	24.02	0.05	-0.050	0.332	0.583	
0.6820	43646.78	3.5590	3.5592	-1.4490	24.03	0.06	-0.050			
0.6834	43737.30	3.5580	3.5583	-1.4279	24.04	0.07	-0.050			
0.6848	43824.09	3.5570	3.5566	-1.4056	24.04	0.07	-0.050			
0.6861	43910.00	3.5560	3.5556	-1.3900	24.04	0.07	-0.050			
0.6874	43994.83	3.5550	3.5548	-1.3721	24.02	0.05	-0.050			
0.6887	44078.63	3.5540	3.5539	-1.3551	24.03	0.06	-0.050			
0.6901	44163.35	3.5530	3.5529	-1.3428	24.03	0.06	-0.050			
0.6914	44247.55	3.5520	3.5521	-1.3309	24.04	0.07	-0.050			
0.6927	44332.30	3.5510	3.5508	-1.3201	24.03	0.06	-0.050			
0.6940	44416.78	3.5500	3.5499	-1.3102	24.03	0.06	-0.050			
0.6953	44501.38	3.5490	3.5487	-1.3032	24.04	0.07	-0.050			
0.6967	44588.41	3.5480	3.5480	-1.3012	24.02	0.05	-0.050			
0.6980	44673.85	3.5470	3.5470	-1.2941	24.02	0.05	-0.050			
0.6994	44758.84	3.5460	3.5461	-1.2824	24.02	0.05	-0.050			
0.7006	44840.78	3.5450	3.5448	-1.2658	24.01	0.04	-0.050	0.334	0.772	
0.7019	44923.33	3.5440	3.5442	-1.2504	24.00	0.03	-0.050			
0.7032	45002.22	3.5430	3.5432	-1.2332	23.99	0.02	-0.050			
0.7044	45080.15	3.5420	3.5420	-1.2165	23.98	0.01	-0.050			
0.7056	45157.00	3.5410	3.5411	-1.1982	23.98	0.01	-0.050			
0.7068	45232.45	3.5400	3.5401	-1.1815	23.96	-0.01	-0.050			
0.7079	45306.58	3.5390	3.5385	-1.1656	23.96	-0.01	-0.050			
0.7091	45379.34	3.5380	3.5381	-1.1492	23.94	-0.03	-0.050			
0.7102	45451.33	3.5370	3.5371	-1.1352	23.94	-0.03	-0.050			
0.7113	45523.22	3.5360	3.5362	-1.1219	23.93	-0.04	-0.050			
0.7124	45594.42	3.5350	3.5349	-1.1079	23.93	-0.04	-0.050			
0.7135	45664.91	3.5340	3.5334	-1.0957	23.92	-0.05	-0.050			
0.7146	45734.42	3.5330	3.5331	-1.0849	23.92	-0.05	-0.050			
0.7157	45803.60	3.5320	3.5323	-1.0732	23.92	-0.05	-0.050			
0.7167	45870.44	3.5310	3.5307	-1.0657	23.90	-0.07	-0.050			
0.7178	45938.03	3.5300	3.5300	-1.0581	23.92	-0.05	-0.050			
0.7188	46005.55	3.5290	3.5291	-1.0521	23.91	-0.06	-0.050			
0.7199	46072.19	3.5280	3.5279	-1.0408	23.90	-0.07	-0.050			
0.7209	46138.19	3.5270	3.5269	-1.0320	23.90	-0.07	-0.050	0.549	0.738	
0.7219	46203.84	3.5260	3.5260	-1.0266	23.90	-0.07	-0.050			
0.7230	46269.21	3.5250	3.5245	-1.0197	23.89	-0.08	-0.050			
0.7239	46332.13	3.5240	3.5241	-1.0189	23.88	-0.09	-0.050			
0.7249	46395.63	3.5230	3.5230	-1.0147	23.88	-0.09	-0.050			
0.7259	46459.96	3.5220	3.5219	-1.0122	23.88	-0.09	-0.050			
0.7269	46524.45	3.5210	3.5214	-1.0106	23.87	-0.10	-0.050			
0.7279	46588.51	3.5200	3.5201	-1.0095	23.86	-0.11	-0.050			
0.7290	46652.98	3.5190	3.5193	-1.0079	23.86	-0.11	-0.050			
0.7300	46717.95	3.5180	3.5179	-1.0071	23.85	-0.12	-0.050			
0.7310	46782.48	3.5170	3.5169	-1.0069	23.85	-0.12	-0.050			
0.7320	46847.50	3.5160	3.5161	-1.0067	23.84	-0.13	-0.050			
0.7330	46912.12	3.5150	3.5147	-1.0059	23.84	-0.13	-0.050			
0.7340	46976.53	3.5140	3.5143	-1.0043	23.84	-0.13	-0.050			
0.7350	47040.23	3.5130	3.5131	-1.0029	23.84	-0.13	-0.050			
0.7360	47104.13	3.5120	3.5119	-1.0042	23.83	-0.14	-0.050			
0.7370	47165.15	3.5110	3.5111	-1.0103	23.82	-0.15	-0.050			
0.7380	47229.26	3.5100	3.5101	-1.0179	23.83	-0.14	-0.050			
0.7389	47291.99	3.5090	3.5093	-1.0332	23.82	-0.15	-0.050			
0.7399	47356.20	3.5080	3.5080	-1.0481	23.82	-0.15	-0.050			
0.7409	47420.03	3.5070	3.5071	-1.0624	23.82	-0.15	-0.050	0.225	0.513	
0.7420	47484.88	3.5060	3.5060	-1.0778	23.82	-0.15	-0.050			
0.7430	47553.91	3.5050	3.5049	-1.0964	23.82	-0.15	-0.050			
0.7441	47622.67	3.5040	3.5038	-1.1118	23.82	-0.15	-0.050			
0.7452	47692.33	3.5030	3.5030	-1.1406	23.82	-0.15	-0.050			
0.7463	47763.16	3.5020	3.5019	-1.1765	23.82	-0.15	-0.050			
0.7474	47834.90	3.5010	3.5011	-1.2155	23.82	-0.15	-0.050			
0.7486	47910.07	3.5000	3.5001	-1.2626	23.82	-0.15	-0.050			
0.7498	47989.14	3.4990	3.4992	-1.3085	23.82	-0.15	-0.050			
0.7511	48072.57	3.4980	3.4982	-1.3601	23.82	-0.15	-0.050			
0.7525	48158.26	3.4970	3.4971	-1.4125	23.83	-0.14	-0.050			
0.7539	48247.91	3.4960	3.4963	-1.4698	23.84	-0.13	-0.050			
0.7553	48341.87	3.4950	3.4947	-1.5331	23.84	-0.13	-0.050			
0.7569	48440.19	3.4940	3.4939	-1.5944	23.84	-0.13	-0.050			
0.7585	48541.79	3.4930	3.4930	-1.6593	23.85	-0.12	-0.050			
0.7602	48651.55	3.4920	3.4922	-1.7218	23.86	-0.11	-0.050	0.281	0.534	
0.7619	48763.47	3.4910	3.4911	-1.7832	23.88	-0.09	-0.050			
0.7638	48881.31	3.4900	3.4902	-1.8477	23.90	-0.07	-0.050			
0.7657	49005.29	3.4890	3.4890	-1.9079	23.91	-0.06	-0.050			
0.7677	49132.54	3.4880	3.4883	-1.9669	23.92	-0.05	-0.050			
0.7698	49266.04	3.4870	3.4869	-2.0183	23.94	-0.03	-0.050			
0.7719	49402.85	3.4860	3.4858	-2.0654	23.96	-0.01	-0.050			
0.7741	49542.94	3.4850	3.4847	-2.0938	23.96	-0.01	-0.050			
0.7763	49684.41	3.4840	3.4842	-2.1173	23.95	-0.02	-0.050			
0.7785	49821.35	3.4830	3.4830	-2.1456	23.94	-0.03	-0.050			
0.7806	49960.91	3.4820	3.4821	-2.1660	23.91	-0.06	-0.050	0.614	0.731	
0.7829	50103.83	3.4810	3.4811	-2.1822	23.90	-0.07	-0.050			
0.7852	50250.21	3.4800	3.4801	-2.1863	23.88	-0.09	-0.050			
0.7874	50395.90	3.4790	3.4789	-2.1842	23.87	-0.10	-0.050			
0.7897	50540.82	3.4780	3.4778	-2.1632	23.86	-0.11	-0.050			
0.7919	50683.42	3.4770	3.4771	-2.1380	23.84	-0.13	-0.050			
0.7941	50823.81	3.4760	3.4755	-2.1026	23.82	-0.15	-0.050			
0.7963	50962.52	3.4750	3.4749	-2.0636	23.82	-0.15	-0.050			
0.7984	51096.99	3.4740	3.4739	-2.0165	23.80	-0.17	-0.050			
0.8004	51228.64	3.4730	3.4734	-1.9633	23.81	-0.16	-0.050	0.331	0.637	
0.8025	51358.19	3.4720	3.4723	-1.9067	23.82	-0.15	-0.050			
0.8044	51481.48	3.4710	3.4711	-1.8457	23.82	-0.15	-0.050			
0.8063	51601.01	3.4700	3.4701	-1.7823	23.82	-0.15	-0.050			
0.8080	51714.40	3.4690	3.4689	-1.7145	23.82	-0.15	-0.050			
0.8098	51824.59	3.4680	3.4680	-1.6503	23.82	-0.15	-0.050			
0.8114	51930.27	3.4670	3.4667	-1.5820	23.82	-0.15	-0.050			
0.8129	52027.87	3.4660	3.4660	-1.5146	23.82	-0.15	-0.050			
0.8143	52117.20	3.4650	3.4650	-1.4449	23.82	-0.15	-0.050			
0.8157	52203.10	3.4640	3.4641	-1.3713	23.82	-0.15	-0.050			
0.8169	52282.10	3.4630	3.4628	-1.2956	23.82	-0.15	-0.050			
0.8182	52363.34	3.4620	3.4620	-1.2394	23.82	-0.15	-0.050			
0.8194	52441.39	3.4610	3.4610	-1.1845	23.82	-0.15	-0.050			
0.8205	52514.84	3.4600	3.4600	-1.1302	23.82	-0.15	-0.050	0.361	0.709	
0.8216	52583.57	3.4590	3.4589	-1.0833	23.82	-0.15	-0.050			
0.8227	52649.63	3.4580	3.4579	-1.0342	23.82	-0.15	-0.050			
0.8236	52712.28	3.4570	3.4571	-0.9889	23.81	-0.16	-0.050			
0.8246	52771.54	3.4560	3.4563	-0.9468	23.80	-0.17	-0.050			
0.8255	52829.27	3.4550	3.4553	-0.9089	23.80	-0.17	-0.050			
0.8263	52883.52	3.4540	3.4543	-0.8724	23.80	-0.17	-0.050			
0.8271	52936.29	3.4530	3.4520	-0.8378	23.80	-0.17	-0.050			
0.8279	52985.27	3.4520	3.4514	-0.8027	23.80	-0.17	-0.050			
0.8286	53033.02	3.4510	3.4505	-0.7729	23.80	-0.17	-0.050			
0.8294	53080.32	3.4500	3.4500	-0.7472	23.80	-0.17	-0.050			
0.8301	53124.78	3.4490	3.4490	-0.7182	23.80	-0.17	-0.050			
0.8307	53167.77	3.4480	3.4481	-0.6934	23.80	-0.17	-0.050			
0.8314	53210.99	3.4470	3.4472	-0.6708	23.80	-0.17	-0.050			
0.8321	53252.12	3.4460	3.4463	-0.6494	23.80	-0.17	-0.050			
0.8327	53293.50	3.4450	3.4453	-0.6311	23.80	-0.17	-0.050			
0.8334	53334.70	3.4440	3.4442	-0.6162	23.82	-0.15	-0.050			
0.8340	53375.80	3.4430	3.4430	-0.6008	23.82	-0.15	-0.050			
0.8346	53414.09	3.4420	3.4420	-0.5798	23.82	-0.15	-0.050			
0.8351	53449.53	3.4410	3.4410	-0.5603	23.83	-0.14	-0.050			
0.8357	53484.16	3.4400	3.4401	-0.5403	23.84	-0.13	-0.050			
0.8362	53516.52	3.4390	3.4390	-0.5169	23.84	-0.13	-0.050			
0.8367	53548.47	3.4380	3.4379	-0.5016	23.85	-0.12	-0.050			
0.8372	53578.78	3.4370	3.4369	-0.4865	23.85	-0.12	-0.050			
0.8376	53607.40	3.4360	3.4361	-0.4710	23.86	-0.11	-0.050			
0.8381	53636.42	3.4350	3.4351	-0.4561	23.86	-0.11	-0.050			
0.8385	53664.50	3.4340	3.4341	-0.4451	23.87	-0.10	-0.050			
0.8389	53691.99	3.4330	3.4330	-0.4319	23.87	-0.10	-0.050			
0.8394	53718.72	3.4320	3.4319	-0.4217	23.88	-0.09	-0.050			
0.8398	53744.42	3.4310	3.4309	-0.4090	23.88	-0.09	-0.050			
0.8401	53769.04	3.4300	3.4302	-0.3991	23.89	-0.08	-0.050			
0.8405	53794.33	3.4290	3.4290	-0.3911	23.89	-0.08	-0.050	0.866	1.114	
0.8409	53818.62	3.4280	3.4282	-0.3833	23.90	-0.07	-0.050			
0.8413	53842.52	3.4270	3.4271	-0.3752	23.90	-0.07	-0.050			
0.8417	53865.96	3.4260	3.4261	-0.3691	23.90	-0.07	-0.050			
0.8420	53888.80	3.4250	3.4253	-0.3612	23.90	-0.07	-0.050			
0.8424	53911.82	3.4240	3.4240	-0.3551	23.91	-0.06	-0.050			
0.8427	53934.57	3.4230	3.4231	-0.3495	23.92	-0.05	-0.050			
0.8431	53956.66	3.4220	3.4220	-0.3437	23.92	-0.05	-0.050			
0.8434	53978.59	3.4210	3.4209	-0.3379	23.92	-0.05	-0.050			
0.8437	53999.37	3.4200	3.4200	-0.3322	23.93	-0.04	-0.050			
0.8441	54020.46	3.4190	3.4191	-0.3268	23.93	-0.04	-0.050			
0.8444	54041.10	3.4180	3.4180	-0.3235	23.94	-0.03	-0.050			
0.8447	54060.78	3.4170	3.4170	-0.3161	23.94	-0.03	-0.050			
0.8450	54080.47	3.4160	3.4160	-0.3115	23.95	-0.02	-0.050			
0.8453	54100.29	3.4150	3.4151	-0.3077	23.95	-0.02	-0.050			
0.8456	54119.66	3.4140	3.4141	-0.3036	23.96	-0.01	-0.050			
0.8459	54138.96	3.4130	3.4129	-0.3001	23.96	-0.01	-0.050			
0.8462	54158.12	3.4120	3.4121	-0.2966	23.96	-0.01	-0.050			
0.8465	54177.15	3.4110	3.4110	-0.2925	23.97	0.00	-0.050			
0.8468	54195.74	3.4100	3.4098	-0.2887	23.98	0.01	-0.050			
0.8471	54214.09	3.4090	3.4092	-0.2849	23.98	0.01	-0.050			
0.8474	54231.55	3.4080	3.4078	-0.2819	23.98	0.01	-0.050			
0.8476	54249.49	3.4070	3.4073	-0.2788	23.98	0.01	-0.050			
0.8479	54266.85	3.4060	3.4060	-0.2770	23.99	0.02	-0.050			
0.8482	54284.50	3.4050	3.4050	-0.2745	23.99	0.02	-0.050			
0.8485	54301.89	3.4040	3.4040	-0.2710	24.00	0.03	-0.050			
0.8487	54319.15	3.4030	3.4030	-0.2685	24.00	0.03	-0.050			
0.8490	54336.49	3.4020	3.4020	-0.2664	24.00	0.03	-0.050			
0.8493	54353.24	3.4010	3.4010	-0.2644	24.00	0.03	-0.050			
0.8495	54369.93	3.4000	3.4001	-0.2617	24.00	0.03	-0.050			
0.8498	54386.45	3.3990	3.3983	-0.2598	24.01	0.04	-0.050			
0.8500	54402.69	3.3980	3.3982	-0.2568	24.02	0.05	-0.050			
0.8503	54419.07	3.3970	3.3969	-0.2550	24.02	0.05	-0.050			
0.8505	54434.97	3.3960	3.3961	-0.2529	24.03	0.06	-0.050			
0.8508	54451.11	3.3950	3.3953	-0.2514	24.03	0.06	-0.050			
0.8510	54467.16	3.3940	3.3940	-0.2500	24.04	0.07	-0.050			
0.8513	54483.18	3.3930	3.3932	-0.2484	24.04	0.07	-0.050			
0.8515	54499.03	3.3920	3.3919	-0.2469	24.04	0.07	-0.050			
0.8518	54514.89	3.3910	3.3908	-0.2455	24.04	0.07	-0.050			
0.8520	54530.69	3.3900	3.3900	-0.2434	24.04	0.07	-0.050			
0.8523	54546.21	3.3890	3.3889	-0.2416	24.04	0.07	-0.050			
0.8525	54561.53	3.3880	3.3880	-0.2411	24.04	0.07	-0.050			
0.8528	54576.91	3.3870	3.3869	-0.2394	24.04	0.07	-0.050			
0.8530	54591.66	3.3860	3.3860	-0.2369	24.05	0.08	-0.050			
0.8532	54606.76	3.3850	3.3852	-0.2358	24.05	0.08	-0.050			
0.8535	54621.65	3.3840	3.3840	-0.2342	24.06	0.09	-0.050			
0.8537	54636.61	3.3830	3.3831	-0.2332	24.06	0.09	-0.050			
0.8539	54651.44	3.3820	3.3824	-0.2325	24.06	0.09	-0.050			
0.8542	54666.58	3.3810	3.3804	-0.2321	24.06	0.09	-0.050			
0.8544	54681.85	3.3800	3.3800	-0.2298	24.06	0.09	-0.050			
0.8546	54696.40	3.3790	3.3788	-0.2279	24.06	0.09	-0.050			
0.8549	54710.94	3.3780	3.3778	-0.2264	24.07	0.10	-0.050			
0.8551	54725.39	3.3770	3.3771	-0.2249	24.07	0.10	-0.050			
0.8553	54739.71	3.3760	3.3760	-0.2239	24.07	0.10	-0.050			
0.8555	54753.99	3.3750	3.3750	-0.2224	24.07	0.10	-0.050			
0.8558	54768.28	3.3740	3.3741	-0.2206	24.07	0.10	-0.050			
0.8560	54782.39	3.3730	3.3729	-0.2191	24.07	0.10	-0.050			
0.8562	54796.36	3.3720	3.3720	-0.2175	24.07	0.10	-0.050			
0.8564	54810.23	3.3710	3.3712	-0.2159	24.07	0.10	-0.050			
0.8566	54823.71	3.3700	3.3700	-0.2165	24.08	0.11	-0.050			
0.8568	54837.52	3.3690	3.3693	-0.2153	24.08	0.11	-0.050			
0.8571	54851.26	3.3680	3.3672	-0.2141	24.08	0.11	-0.050			
0.8573	54864.77	3.3670	3.3671	-0.2135	24.08	0.11	-0.050			
0.8575	54878.40	3.3660	3.3663	-0.2125	24.08	0.11	-0.050			
0.8577	54891.36	3.3650	3.3649	-0.2107	24.08	0.11	-0.050			
0.8579	54904.98	3.3640	3.3640	-0.2097	24.08	0.11	-0.050			
0.8581	54918.38	3.3630	3.3633	-0.2091	24.08	0.11	-0.050			
0.8583	54931.20	3.3620	3.3614	-0.2092	24.08	0.11	-0.050			
0.8585	54944.59	3.3610	3.3611	-0.2092	24.08	0.11	-0.050			
0.8587	54958.80	3.3600	3.3603	-0.2071	24.08	0.11	-0.050			
0.8589	54972.03	3.3590	3.3595	-0.2063	24.08	0.11	-0.050			
0.8591	54985.21	3.3580	3.3574	-0.2056	24.08	0.11	-0.050			
0.8593	54998.34	3.3570	3.3573	-0.2049	24.08	0.11	-0.050			
0.8596	55011.85	3.3560	3.3562	-0.2057	24.08	0.11	-0.050			
0.8598	55024.98	3.3550	3.3544	-0.2046	24.08	0.11	-0.050			
0.8600	55038.02	3.3540	3.3543	-0.2035	24.08	0.11	-0.050			
0.8602	55050.80	3.3530	3.3526	-0.2032	24.08	0.11	-0.050			
0.8604	55063.77	3.3520	3.3521	-0.2024	24.08	0.11	-0.050			
0.8606	55076.70	3.3510	3.3513	-0.2016	24.08	0.11	-0.050	0.554	0.656	
0.8608	55089.95	3.3500	3.3495	-0.2009	24.08	0.11	-0.050			
0.8610	55102.77	3.3490	3.3491	-0.1997	24.08	0.11	-0.050			
0.8612	55115.52	3.3480	3.3482	-0.1986	24.08	0.11	-0.050			
0.8614	55127.70	3.3470	3.3465	-0.1969	24.08	0.11	-0.050			
0.8616	55140.21	3.3460	3.3456	-0.1964	24.08	0.11	-0.050			
0.8618	55152.76	3.3450	3.3452	-0.1958	24.08	0.11	-0.050			
0.8620	55165.36	3.3440	3.3443	-0.1952	24.08	0.11	-0.050			
0.8622	55177.83	3.3430	3.3427	-0.1945	24.08	0.11	-0.050			
0.8623	55190.14	3.3420	3.3419	-0.1936	24.08	0.11	-0.050			
0.8625	55202.51	3.3410	3.3413	-0.1930	24.08	0.11	-0.050			
0.8627	55214.74	3.3400	3.3402	-0.1910	24.08	0.11	-0.050			
0.8629	55226.95	3.3390	3.3387	-0.1906	24.08	0.11	-0.050			
0.8631	55239.13	3.3380	3.3380	-0.1901	24.08	0.11	-0.050			
0.8633	55251.54	3.3370	3.3365	-0.1887	24.08	0.11	-0.050			
0.8635	55264.38	3.3360	3.3361	-0.1897	24.08	0.11	-0.050			
0.8637	55276.47	3.3350	3.3351	-0.1884	24.08	0.11	-0.050			
0.8639	55288.49	3.3340	3.3344	-0.1870	24.08	0.11	-0.050			
0.8641	55299.78	3.3330	3.3328	-0.1858	24.08	0.11	-0.050			
0.8642	55311.65	3.3320	3.3320	-0.1851	24.08	0.11	-0.050			
0.8644	55323.47	3.3310	3.3313	-0.1844	24.08	0.11	-0.050			
0.8646	55335.13	3.3300	3.3301	-0.1835	24.07	0.10	-0.050			
0.8648	55346.76	3.3290	3.3283	-0.1833	24.07	0.10	-0.050			
0.8650	55358.47	3.3280	3.3277	-0.1828	24.07	0.10	-0.050			
0.8652	55370.15	3.3270	3.3275	-0.1823	24.06	0.09	-0.050			
0.8653	55382.02	3.3260	3.3256	-0.1818	24.06	0.09	-0.050			
0.8655	55393.63	3.3250	3.3249	-0.1811	24.06	0.09	-0.050			
0.8657	55405.20	3.3240	3.3244	-0.1804	24.07	0.10	-0.050			
0.8659	55416.42	3.3230	3.3226	-0.1794	24.07	0.10	-0.050			
0.8661	55428.00	3.3220	3.3217	-0.1786	24.07	0.10	-0.050			
0.8662	55439.41	3.3210	3.3212	-0.1781	24.07	0.10	-0.050			
0.8664	55450.81	3.3200	3.3204	-0.1776	24.07	0.10	-0.050			
0.8666	55461.97	3.3190	3.3186	-0.1776	24.06	0.09	-0.050			
0.8668	55473.32	3.3180	3.3180	-0.1772	24.06	0.09	-0.050			
0.8669	55484.70	3.3170	3.3173	-0.1770	24.06	0.09	-0.050			
0.8671	55496.01	3.3160	3.3161	-0.1766	24.06	0.09	-0.050			
0.8673	55507.16	3.3150	3.3146	-0.1766	24.06	0.09	-0.050			
0.8675	55518.46	3.3140	3.3143	-0.1764	24.06	0.09	-0.050			
0.8677	55529.77	3.3130	3.3126	-0.1762	24.06	0.09	-0.050			
0.8678	55541.46	3.3120	3.3115	-0.1750	24.06	0.09	-0.050			
0.8680	55552.64	3.3110	3.3112	-0.1743	24.06	0.09	-0.050			
0.8682	55563.77	3.3100	3.3097	-0.1737	24.06	0.09	-0.050			
0.8684	55574.70	3.3090	3.3087	-0.1728	24.06	0.09	-0.050			
0.8685	55585.73	3.3080	3.3078	-0.1723	24.06	0.09	-0.050			
0.8687	55596.74	3.3070	3.3079	-0.1718	24.06	0.09	-0.050			
0.8689	55607.78	3.3060	3.3058	-0.1714	24.06	0.09	-0.050			
0.8690	55618.73	3.3050	3.3051	-0.1708	24.06	0.09	-0.050			
0.8692	55629.81	3.3040	3.3036	-0.1697	24.06	0.09	-0.050			
0.8694	55640.65	3.3030	3.3032	-0.1690	24.06	0.09	-0.050			
0.8696	55651.82	3.3020	3.3015	-0.1689	24.06	0.09	-0.050			
0.8697	55662.60	3.3010	3.3014	-0.1679	24.06	0.09	-0.050			
0.8699	55673.45	3.3000	3.2994	-0.1664	24.06	0.09	-0.050			
0.8701	55684.31	3.2990	3.2990	-0.1658	24.06	0.09	-0.050			
0.8702	55694.87	3.2980	3.2981	-0.1644	24.06	0.09	-0.050			
0.8704	55705.35	3.2970	3.2966	-0.1631	24.06	0.09	-0.050			
0.8706	55715.48	3.2960	3.2963	-0.1627	24.05	0.08	-0.050			
0.8707	55725.61	3.2950	3.2948	-0.1611	24.05	0.08	-0.050			
0.8709	55735.89	3.2940	3.2939	-0.1602	24.04	0.07	-0.050			
0.8710	55746.12	3.2930	3.2931	-0.1593	24.04	0.07	-0.050			
0.8712	55755.92	3.2920	3.2923	-0.1585	24.04	0.07	-0.050			
0.8713	55766.04	3.2910	3.2908	-0.1580	24.04	0.07	-0.050			
0.8715	55776.13	3.2900	3.2899	-0.1574	24.05	0.08	-0.050			
0.8717	55786.19	3.2890	3.2891	-0.1569	24.05	0.08	-0.050			
0.8718	55796.22	3.2880	3.2876	-0.1568	24.05	0.08	-0.050			
0.8720	55806.24	3.2870	3.2868	-0.1563	24.05	0.08	-0.050			
0.8721	55816.23	3.2860	3.2858	-0.1558	24.05	0.08	-0.050			
0.8723	55826.18	3.2850	3.2851	-0.1552	24.04	0.07	-0.050			
0.8724	55835.22	3.2840	3.2836	-0.1545	24.04	0.07	-0.050			
0.8726	55845.12	3.2830	3.2832	-0.1547	24.04	0.07	-0.050			
0.8727	55855.03	3.2820	3.2822	-0.1549	24.04	0.07	-0.050			
0.8729	55864.95	3.2810	3.2808	-0.1551	24.04	0.07	-0.050			
0.8730	55875.11	3.2800	3.2803	-0.1545	24.04	0.07	-0.050			
0.8732	55885.00	3.2790	3.2784	-0.1545	24.04	0.07	-0.050			
0.8734	55894.89	3.2780	3.2778	-0.1545	24.04	0.07	-0.050			
0.8735	55904.77	3.2770	3.2772	-0.1545	24.04	0.07	-0.050			
0.8737	55914.93	3.2760	3.2757	-0.1546	24.04	0.07	-0.050			
0.8738	55924.82	3.2750	3.2750	-0.1544	24.04	0.07	-0.050			
0.8740	55934.69	3.2740	3.2743	-0.1542	24.04	0.07	-0.050			
0.8741	55944.55	3.2730	3.2727	-0.1539	24.04	0.07	-0.050			
0.8743	55954.39	3.2720	3.2722	-0.1537	24.04	0.07	-0.050			
0.8744	55964.76	3.2710	3.2709	-0.1518	24.04	0.07	-0.050			
0.8746	55974.45	3.2700	3.2696	-0.1511	24.04	0.07	-0.050			
0.8748	55984.09	3.2690	3.2694	-0.1503	24.04	0.07	-0.050			
0.8749	55994.19	3.2680	3.2677	-0.1501	24.04	0.07	-0.050			
0.8750	56003.18	3.2670	3.2671	-0.1505	24.04	0.07	-0.050			
0.8752	56012.79	3.2660	3.2663	-0.1499	24.04	0.07	-0.050			
0.8753	56022.37	3.2650	3.2646	-0.1493	24.04	0.07	-0.050			
0.8755	56031.90	3.2640	3.2639	-0.1489	24.04	0.07	-0.050			
0.8756	56041.41	3.2630	3.2632	-0.1483	24.04	0.07	-0.050			
0.8758	56050.88	3.2620	3.2623	-0.1477	24.04	0.07	-0.050			
0.8759	56060.31	3.2610	3.2606	-0.1471	24.04	0.07	-0.050			
0.8761	56069.30	3.2600	3.2601	-0.1458	24.04	0.07	-0.050			
0.8762	56078.83	3.2590	3.2587	-0.1450	24.04	0.07	-0.050			
0.8764	56088.10	3.2580	3.2582	-0.1446	24.04	0.07	-0.050			
0.8765	56097.34	3.2570	3.2567	-0.1441	24.04	0.07	-0.050			
0.8767	56106.65	3.2560	3.2559	-0.1438	24.04	0.07	-0.050			
0.8768	56115.91	3.2550	3.2555	-0.1431	24.04	0.07	-0.050			
0.8770	56125.05	3.2540	3.2541	-0.1425	24.04	0.07	-0.050			
0.8771	56134.16	3.2530	3.2528	-0.1419	24.04	0.07	-0.050			
0.8772	56143.22	3.2520	3.2520	-0.1413	24.04	0.07	-0.050			
0.8774	56152.06	3.2510	3.2514	-0.1410	24.04	0.07	-0.050			
0.8775	56161.07	3.2500	3.2500	-0.1406	24.04	0.07	-0.050			
0.8777	56170.06	3.2490	3.2494	-0.1401	24.04	0.07	-0.050			
0.8778	56179.01	3.2480	3.2475	-0.1397	24.04	0.07	-0.050			
0.8779	56188.15	3.2470	3.2472	-0.1403	24.03	0.06	-0.050			
0.8781	56197.10	3.2460	3.2458	-0.1397	24.03	0.06	-0.050			
0.8782	56206.02	3.2450	3.2447	-0.1391	24.03	0.06	-0.050			
0.8783	56214.30	3.2440	3.2440	-0.1369	24.02	0.05	-0.050			
0.8785	56223.06	3.2430	3.2433	-0.1369	24.02	0.05	-0.050			
0.8786	56231.60	3.2420	3.2418	-0.1373	24.02	0.05	-0.050			
0.8788	56240.39	3.2410	3.2407	-0.1374	24.02	0.05	-0.050			
0.8789	56249.19	3.2400	3.2401	-0.1376	24.02	0.05	-0.050			
0.8790	56257.86	3.2390	3.2395	-0.1374	24.03	0.06	-0.050			
0.8792	56266.66	3.2380	3.2381	-0.1377	24.03	0.06	-0.050			
0.8793	56276.04	3.2370	3.2372	-0.1363	24.03	0.06	-0.050			
0.8794	56284.75	3.2360	3.2356	-0.1361	24.03	0.06	-0.050			
0.8796	56293.71	3.2350	3.2346	-0.1362	24.03	0.06	-0.050			
0.8797	56302.42	3.2340	3.2339	-0.1358	24.03	0.06	-0.050			
0.8799	56311.30	3.2330	3.2324	-0.1349	24.02	0.05	-0.050			
0.8800	56319.91	3.2320	3.2317	-0.1343	24.02	0.05	-0.050			
0.8801	56328.77	3.2310	3.2311	-0.1344	24.02	0.05	-0.050			
0.8803	56337.35	3.2300	3.2303	-0.1336	24.02	0.05	-0.050			
0.8804	56345.87	3.2290	3.2294	-0.1328	24.02	0.05	-0.050			
0.8805	56354.34	3.2280	3.2279	-0.1320	24.02	0.05	-0.050			
0.8807	56362.68	3.2270	3.2271	-0.1319	24.02	0.05	-0.050	0.333	0.545	
0.8808	56371.10	3.2260	3.2260	-0.1312	24.02	0.05	-0.050			
0.8809	56379.47	3.2250	3.2247	-0.1304	24.02	0.05	-0.050			
0.8811	56387.79	3.2240	3.2240	-0.1297	24.02	0.05	-0.050			
0.8812	56396.07	3.2230	3.2227	-0.1290	24.02	0.05	-0.050			
0.8813	56404.35	3.2220	3.2218	-0.1283	24.02	0.05	-0.050			
0.8814	56412.54	3.2210	3.2210	-0.1275	24.02	0.05	-0.050			
0.8816	56420.67	3.2200	3.2198	-0.1267	24.02	0.05	-0.050			
0.8817	56428.76	3.2190	3.2188	-0.1260	24.02	0.05	-0.050			
0.8818	56436.80	3.2180	3.2181	-0.1252	24.02	0.05	-0.050			
0.8819	56444.07	3.2170	3.2171	-0.1240	24.02	0.05	-0.050			
0.8821	56452.00	3.2160	3.2158	-0.1237	24.02	0.05	-0.050			
0.8822	56459.91	3.2150	3.2151	-0.1235	24.02	0.05	-0.050			
0.8823	56467.80	3.2140	3.2140	-0.1232	24.02	0.05	-0.050			
0.8824	56476.04	3.2130	3.2127	-0.1236	24.02	0.05	-0.050			
0.8826	56483.93	3.2120	3.2121	-0.1231	24.02	0.05	-0.050			
0.8827	56491.79	3.2110	3.2112	-0.1226	24.02	0.05	-0.050			
0.8828	56499.62	3.2100	3.2098	-0.1220	24.02	0.05	-0.050			
0.8829	56507.41	3.2090	3.2088	-0.1215	24.02	0.05	-0.050			
0.8830	56515.17	3.2080	3.2081	-0.1210	24.02	0.05	-0.050			
0.8832	56522.56	3.2070	3.2071	-0.1207	24.02	0.05	-0.050			
0.8833	56530.27	3.2060	3.2059	-0.1204	24.02	0.05	-0.050			
0.8834	56537.97	3.2050	3.2051	-0.1202	24.02	0.05	-0.050			
0.8835	56545.66	3.2040	3.2042	-0.1199	24.02	0.05	-0.050			
0.8836	56553.32	3.2030	3.2027	-0.1196	24.02	0.05	-0.050			
0.8838	56560.67	3.2020	3.2018	-0.1191	24.02	0.05	-0.050			
0.8839	56568.69	3.2010	3.2012	-0.1181	24.02	0.05	-0.050			
0.8840	56576.23	3.2000	3.2000	-0.1177	24.02	0.05	-0.050			
0.8841	56583.76	3.1990	3.1989	-0.1173	24.02	0.05	-0.050			
0.8842	56591.25	3.1980	3.1980	-0.1169	24.02	0.05	-0.050			
0.8844	56599.10	3.1970	3.1972	-0.1169	24.02	0.05	-0.050			
0.8845	56606.48	3.1960	3.1957	-0.1164	24.02	0.05	-0.050			
0.8846	56613.92	3.1950	3.1947	-0.1158	24.02	0.05	-0.050			
0.8847	56621.31	3.1940	3.1940	-0.1153	24.02	0.05	-0.050			
0.8848	56628.65	3.1930	3.1929	-0.1146	24.02	0.05	-0.050			
0.8849	56635.97	3.1920	3.1919	-0.1141	24.02	0.05	-0.050			
0.8850	56642.98	3.1910	3.1911	-0.1140	24.02	0.05	-0.050			
0.8852	56650.26	3.1900	3.1903	-0.1136	24.02	0.05	-0.050			
0.8853	56657.53	3.1890	3.1891	-0.1133	24.02	0.05	-0.050			
0.8854	56664.76	3.1880	3.1879	-0.1129	24.02	0.05	-0.050			
0.8855	56671.95	3.1870	3.1867	-0.1125	24.02	0.05	-0.050			
0.8856	56679.14	3.1860	3.1858	-0.1121	24.02	0.05	-0.050			
0.8857	56686.20	3.1850	3.1851	-0.1120	24.02	0.05	-0.050			
0.8858	56693.35	3.1840	3.1840	-0.1117	24.02	0.05	-0.050			
0.8859	56700.49	3.1830	3.1828	-0.1114	24.02	0.05	-0.050			
0.8861	56707.61	3.1820	3.1821	-0.1111	24.02	0.05	-0.050			
0.8862	56714.27	3.1810	3.1808	-0.1102	24.02	0.05	-0.050			
0.8863	56721.32	3.1800	3.1800	-0.1102	24.02	0.05	-0.050			
0.8864	56728.59	3.1790	3.1792	-0.1096	24.02	0.05	-0.050			
0.8865	56735.61	3.1780	3.1780	-0.1095	24.02	0.05	-0.050			
0.8866	56742.61	3.1770	3.1769	-0.1093	24.02	0.05	-0.050			
0.8867	56749.91	3.1760	3.1763	-0.1097	24.02	0.05	-0.050			
0.8868	56756.92	3.1750	3.1753	-0.1093	24.02	0.05	-0.050			
0.8869	56763.90	3.1740	3.1739	-0.1089	24.02	0.05	-0.050			
0.8870	56770.80	3.1730	3.1727	-0.1087	24.02	0.05	-0.050			
0.8872	56777.75	3.1720	3.1720	-0.1084	24.02	0.05	-0.050			
0.8873	56784.73	3.1710	3.1711	-0.1082	24.02	0.05	-0.050			
0.8874	56791.64	3.1700	3.1699	-0.1078	24.02	0.05	-0.050			
0.8875	56798.53	3.1690	3.1688	-0.1075	24.02	0.05	-0.050			
0.8876	56805.48	3.1680	3.1677	-0.1069	24.02	0.05	-0.050			
0.8877	56812.31	3.1670	3.1673	-0.1065	24.02	0.05	-0.050			
0.8878	56819.12	3.1660	3.1660	-0.1061	24.02	0.05	-0.050			
0.8879	56825.88	3.1650	3.1648	-0.1056	24.02	0.05	-0.050			
0.8880	56832.63	3.1640	3.1638	-0.1052	24.02	0.05	-0.050			
0.8881	56839.35	3.1630	3.1629	-0.1048	24.02	0.05	-0.050			
0.8882	56846.05	3.1620	3.1622	-0.1044	24.02	0.05	-0.050			
0.8883	56852.67	3.1610	3.1612	-0.1041	24.02	0.05	-0.050			
0.8884	56859.32	3.1600	3.1600	-0.1038	24.02	0.05	-0.050			
0.8885	56865.94	3.1590	3.1593	-0.1034	24.02	0.05	-0.050			
0.8886	56872.55	3.1580	3.1581	-0.1030	24.02	0.05	-0.050			
0.8887	56879.13	3.1570	3.1570	-0.1026	24.02	0.05	-0.050			
0.8888	56885.68	3.1560	3.1560	-0.1022	24.02	0.05	-0.050			
0.8889	56892.21	3.1550	3.1549	-0.1019	24.03	0.06	-0.050			
0.8890	56898.69	3.1540	3.1539	-0.1016	24.03	0.06	-0.050			
0.8891	56905.20	3.1530	3.1529	-0.1013	24.03	0.06	-0.050			
0.8892	56911.67	3.1520	3.1519	-0.1009	24.03	0.06	-0.050			
0.8893	56918.12	3.1510	3.1513	-0.1006	24.03	0.06	-0.050			
0.8894	56924.54	3.1500	3.1500	-0.1002	24.03	0.06	-0.050			
0.8895	56930.97	3.1490	3.1488	-0.0998	24.03	0.06	-0.050			
0.8896	56937.25	3.1480	3.1478	-0.0991	24.03	0.06	-0.050			
0.8897	56943.59	3.1470	3.1467	-0.0988	24.03	0.06	-0.050			
0.8898	56949.90	3.1460	3.1457	-0.0985	24.02	0.05	-0.050			
0.8899	56956.19	3.1450	3.1448	-0.0982	24.02	0.05	-0.050			
0.8900	56962.47	3.1440	3.1441	-0.0979	24.02	0.05	-0.050			
0.8901	56968.66	3.1430	3.1433	-0.0978	24.02	0.05	-0.050			
0.8902	56974.90	3.1420	3.1422	-0.0975	24.02	0.05	-0.050			
0.8903	56981.18	3.1410	3.1407	-0.0973	24.02	0.05	-0.050			
0.8904	56987.39	3.1400	3.1401	-0.0970	24.02	0.05	-0.050			
0.8905	56993.59	3.1390	3.1394	-0.0967	24.02	0.05	-0.050			
0.8906	56999.77	3.1380	3.1382	-0.0964	24.03	0.06	-0.050			
0.8907	57005.93	3.1370	3.1369	-0.0961	24.03	0.06	-0.050			
0.8908	57012.07	3.1360	3.1357	-0.0958	24.03	0.06	-0.050			
0.8909	57018.20	3.1350	3.1348	-0.0955	24.03	0.06	-0.050			
0.8910	57024.22	3.1340	3.1343	-0.0951	24.03	0.06	-0.050			
0.8911	57030.30	3.1330	3.1331	-0.0948	24.03	0.06	-0.050			
0.8912	57036.36	3.1320	3.1320	-0.0946	24.03	0.06	-0.050			
0.8913	57042.41	3.1310	3.1309	-0.0943	24.03	0.06	-0.050			
0.8914	57048.45	3.1300	3.1299	-0.0941	24.03	0.06	-0.050			
0.8915	57054.45	3.1290	3.1290	-0.0938	24.03	0.06	-0.050			
0.8916	57060.45	3.1280	3.1280	-0.0935	24.03	0.06	-0.050			
0.8917	57066.43	3.1270	3.1269	-0.0933	24.03	0.06	-0.050			
0.8918	57072.39	3.1260	3.1259	-0.0930	24.03	0.06	-0.050			
0.8918	57078.33	3.1250	3.1254	-0.0928	24.03	0.06	-0.050			
0.8919	57084.26	3.1240	3.1242	-0.0925	24.03	0.06	-0.050			
0.8920	57090.22	3.1230	3.1230	-0.0925	24.03	0.06	-0.050			
0.8921	57096.13	3.1220	3.1218	-0.0922	24.03	0.06	-0.050			
0.8922	57102.02	3.1210	3.1209	-0.0919	24.03	0.06	-0.050			
0.8923	57107.89	3.1200	3.1201	-0.0916	24.04	0.07	-0.050			
0.8924	57113.75	3.1190	3.1192	-0.0913	24.04	0.07	-0.050			
0.8925	57119.59	3.1180	3.1179	-0.0911	24.04	0.07	-0.050			
0.8926	57125.28	3.1170	3.1168	-0.0906	24.04	0.07	-0.050			
0.8927	57131.08	3.1160	3.1158	-0.0904	24.04	0.07	-0.050			
0.8928	57136.90	3.1150	3.1150	-0.0901	24.04	0.07	-0.050			
0.8929	57142.66	3.1140	3.1138	-0.0899	24.04	0.07	-0.050			
0.8929	57148.41	3.1130	3.1131	-0.0897	24.04	0.07	-0.050			
0.8930	57154.14	3.1120	3.1123	-0.0894	24.04	0.07	-0.050			
0.8931	57159.85	3.1110	3.1111	-0.0892	24.04	0.07	-0.050			
0.8932	57165.60	3.1100	3.1100	-0.0890	24.04	0.07	-0.050			
0.8933	57171.29	3.1090	3.1090	-0.0888	24.04	0.07	-0.050			
0.8934	57177.00	3.1080	3.1080	-0.0885	24.04	0.07	-0.050			
0.8935	57182.65	3.1070	3.1068	-0.0882	24.04	0.07	-0.050			
0.8936	57188.29	3.1060	3.1062	-0.0879	24.04	0.07	-0.050			
0.8937	57193.90	3.1050	3.1049	-0.0876	24.04	0.07	-0.050			
0.8937	57199.50	3.1040	3.1039	-0.0873	24.04	0.07	-0.050			
0.8938	57205.12	3.1030	3.1029	-0.0871	24.04	0.07	-0.050			
0.8939	57210.69	3.1020	3.1019	-0.0868	24.04	0.07	-0.050			
0.8940	57216.18	3.1010	3.1009	-0.0866	24.04	0.07	-0.050			
0.8941	57221.72	3.1000	3.1000	-0.0863	24.04	0.07	-0.050			
0.8942	57227.23	3.0990	3.0990	-0.0861	24.04	0.07	-0.050			
0.8943	57232.73	3.0980	3.0981	-0.0858	24.04	0.07	-0.050			
0.8943	57238.21	3.0970	3.0973	-0.0855	24.04	0.07	-0.050			
0.8944	57243.68	3.0960	3.0960	-0.0852	24.04	0.07	-0.050			
0.8945	57249.09	3.0950	3.0949	-0.0850	24.04	0.07	-0.050			
0.8946	57254.58	3.0940	3.0939	-0.0846	24.04	0.07	-0.050			
0.8947	57259.98	3.0930	3.0929	-0.0843	24.04	0.07	-0.050			
0.8948	57265.37	3.0920	3.0920	-0.0840	24.04	0.07	-0.050			
0.8949	57270.74	3.0910	3.0911	-0.0837	24.04	0.07	-0.050			
0.8949	57276.09	3.0900	3.0900	-0.0835	24.04	0.07	-0.050			
0.8950	57281.42	3.0890	3.0890	-0.0832	24.04	0.07	-0.050			
0.8951	57286.75	3.0880	3.0880	-0.0829	24.04	0.07	-0.050			
0.8952	57292.05	3.0870	3.0872	-0.0826	24.04	0.07	-0.050			
0.8953	57297.47	3.0860	3.0859	-0.0820	24.04	0.07	-0.050			
0.8954	57302.71	3.0850	3.0848	-0.0816	24.04	0.07	-0.050			
0.8954	57307.92	3.0840	3.0838	-0.0812	24.04	0.07	-0.050			
0.8955	57313.10	3.0830	3.0829	-0.0808	24.04	0.07	-0.050			
0.8956	57318.26	3.0820	3.0820	-0.0804	24.04	0.07	-0.050			
0.8957	57323.59	3.0810	3.0811	-0.0802	24.04	0.07	-0.050			
0.8958	57328.70	3.0800	3.0798	-0.0797	24.04	0.07	-0.050			
0.8958	57333.85	3.0790	3.0788	-0.0790	24.04	0.07	-0.050			
0.8959	57338.89	3.0780	3.0780	-0.0785	24.04	0.07	-0.050			
0.8960	57343.89	3.0770	3.0771	-0.0779	24.04	0.07	-0.050			
0.8961	57348.86	3.0760	3.0761	-0.0774	24.04	0.07	-0.050			
0.8962	57353.80	3.0750	3.0752	-0.0768	24.04	0.07	-0.050			
0.8962	57358.78	3.0740	3.0743	-0.0763	24.04	0.07	-0.050			
0.8963	57363.64	3.0730	3.0733	-0.0757	24.04	0.07	-0.050			
0.8964	57367.66	3.0720	3.0725	-0.0768	24.04	0.07	-0.050			
0.8964	57372.57	3.0710	3.0714	-0.0767	24.04	0.07	-0.050			
0.8965	57377.47	3.0700	3.0703	-0.0766	24.04	0.07	-0.050			
0.8966	57382.37	3.0690	3.0693	-0.0765	24.04	0.07	-0.050			
0.8967	57387.26	3.0680	3.0679	-0.0764	24.04	0.07	-0.050			
0.8968	57392.15	3.0670	3.0665	-0.0763	24.04	0.07	-0.050			
0.8968	57396.32	3.0660	3.0660	-0.0756	24.04	0.07	-0.050			
0.8969	57401.17	3.0650	3.0649	-0.0759	24.04	0.07	-0.050			
0.8970	57406.35	3.0640	3.0635	-0.0755	24.04	0.07	-0.050			
0.8970	57411.19	3.0630	3.0625	-0.0756	24.04	0.07	-0.050			
0.8971	57416.03	3.0620	3.0616	-0.0757	24.04	0.07	-0.050			
0.8972	57420.87	3.0610	3.0607	-0.0757	24.04	0.07	-0.050			
0.8973	57425.72	3.0600	3.0598	-0.0758	24.04	0.07	-0.050			
0.8974	57430.50	3.0590	3.0589	-0.0758	24.04	0.07	-0.050			
0.8974	57435.36	3.0580	3.0580	-0.0759	24.04	0.07	-0.050			
0.8975	57440.22	3.0570	3.0570	-0.0761	24.04	0.07	-0.050			
0.8976	57445.48	3.0560	3.0559	-0.0753	24.04	0.07	-0.050			
0.8977	57450.30	3.0550	3.0556	-0.0752	24.04	0.07	-0.050			
0.8977	57455.11	3.0540	3.0544	-0.0751	24.04	0.07	-0.050			
0.8978	57459.92	3.0530	3.0530	-0.0750	24.04	0.07	-0.050			
0.8979	57465.42	3.0520	3.0518	-0.0760	24.04	0.07	-0.050			
0.8980	57470.26	3.0510	3.0508	-0.0755	24.04	0.07	-0.050			
0.8980	57475.08	3.0500	3.0498	-0.0750	24.04	0.07	-0.050			
0.8981	57479.87	3.0490	3.0489	-0.0746	24.03	0.06	-0.050			
0.8982	57484.23	3.0480	3.0480	-0.0751	24.03	0.06	-0.050			
0.8983	57489.03	3.0470	3.0470	-0.0748	24.03	0.06	-0.050			
0.8983	57493.81	3.0460	3.0459	-0.0746	24.03	0.06	-0.050			
0.8984	57498.58	3.0450	3.0450	-0.0743	24.03	0.06	-0.050			
0.8985	57502.90	3.0440	3.0442	-0.0734	24.03	0.06	-0.050			
0.8986	57507.60	3.0430	3.0432	-0.0734	24.03	0.06	-0.050			
0.8986	57512.30	3.0420	3.0419	-0.0734	24.03	0.06	-0.050			
0.8987	57517.00	3.0410	3.0409	-0.0734	24.03	0.06	-0.050			
0.8988	57521.86	3.0400	3.0398	-0.0729	24.03	0.06	-0.050			
0.8989	57526.52	3.0390	3.0388	-0.0728	24.03	0.06	-0.050			
0.8989	57531.18	3.0380	3.0379	-0.0727	24.03	0.06	-0.050			
0.8990	57535.82	3.0370	3.0369	-0.0725	24.02	0.05	-0.050			
0.8991	57540.49	3.0360	3.0360	-0.0725	24.02	0.05	-0.050			
0.8991	57545.13	3.0350	3.0350	-0.0723	24.02	0.05	-0.050			
0.8992	57549.75	3.0340	3.0340	-0.0722	24.02	0.05	-0.050			
0.8993	57554.37	3.0330	3.0332	-0.0720	24.02	0.05	-0.050			
0.8994	57558.97	3.0320	3.0326	-0.0719	24.02	0.05	-0.050			
0.8994	57563.36	3.0310	3.0312	-0.0724	24.02	0.05	-0.050			
0.8995	57567.99	3.0300	3.0300	-0.0723	24.02	0.05	-0.050			
0.8996	57572.62	3.0290	3.0290	-0.0723	24.02	0.05	-0.050			
0.8996	57577.23	3.0280	3.0280	-0.0723	24.02	0.05	-0.050			
0.8997	57581.86	3.0270	3.0269	-0.0723	24.02	0.05	-0.050			
0.8998	57586.48	3.0260	3.0259	-0.0723	24.02	0.05	-0.050			
0.8999	57591.11	3.0250	3.0249	-0.0722	24.02	0.05	-0.050			
0.8999	57595.73	3.0240	3.0238	-0.0722	24.02	0.05	-0.050			
0.9000	57601.06	3.0230	3.0225	-0.0703	24.02	0.05	-0.050			
0.9001	57605.54	3.0220	3.0216	-0.0699	24.02	0.05	-0.050			
0.9002	57610.00	3.0210	3.0206	-0.0694	24.02	0.05	-0.050			
0.9002	57614.79	3.0200	3.0197	-0.0697	24.02	0.05	-0.050			
0.9003	57619.23	3.0190	3.0184	-0.0691	24.02	0.05	-0.050			
0.9004	57623.63	3.0180	3.0174	-0.0685	24.02	0.05	-0.050			
0.9004	57627.99	3.0170	3.0163	-0.0679	24.02	0.05	-0.050			
0.9005	57632.32	3.0160	3.0153	-0.0672	24.02	0.05	-0.050			
0.9006	57636.50	3.0150	3.0143	-0.0670	24.02	0.05	-0.050			
0.9006	57640.77	3.0140	3.0134	-0.0665	24.02	0.05	-0.050			
0.9007	57645.01	3.0130	3.0138	-0.0660	24.02	0.05	-0.050	0.482	0.636	
0.9008	57649.22	3.0120	3.0120	-0.0655	24.02	0.05	-0.050			
0.9008	57654.00	3.0110	3.0104	-0.0654	24.02	0.05	-0.050			
0.9009	57658.16	3.0100	3.0093	-0.0645	24.02	0.05	-0.050			
0.9010	57662.26	3.0090	3.0083	-0.0636	24.02	0.05	-0.050			
0.9010	57666.30	3.0080	3.0080	-0.0627	24.02	0.05	-0.050			
0.9011	57670.29	3.0070	3.0066	-0.0619	24.02	0.05	-0.050			
0.9012	57674.22	3.0060	3.0056	-0.0610	24.02	0.05	-0.050			
0.9012	57678.09	3.0050	3.0046	-0.0601	24.02	0.05	-0.050			
0.9013	57681.91	3.0040	3.0037	-0.0592	24.02	0.05	-0.050			
0.9013	57684.91	3.0030	3.0030	-0.0638	24.02	0.05	-0.050			
0.9014	57689.01	3.0020	3.0020	-0.0645	24.02	0.05	-0.050			
0.9015	57693.16	3.0010	3.0010	-0.0652	24.02	0.05	-0.050			
