Relative time (s)	Voltage (V)	Temperature (°C)	
44.850	3.1702	25.60	
104.850	3.1842	25.59	
164.850	3.1903	25.57	
224.850	3.1944	25.53	
284.850	3.1976	25.50	
344.850	3.1999	25.45	
404.850	3.2020	25.41	
464.850	3.2042	25.38	
524.850	3.2058	25.34	
584.850	3.2075	25.30	
644.850	3.2090	25.25	
704.850	3.2103	25.21	
764.850	3.2118	25.17	
824.850	3.2131	25.13	
884.850	3.2141	25.08	
903.306	3.2152	25.08	
