Ah_balance (normalized)	Ah_balance (mAh)	Voltage - fit (V)	Voltage -  interpolate (V)	dQ/dV (1/V)	Temperature (°C)	Temperature - diff (°C)	Current (C)	R_DC 0ms (mOhm)	R_DC 50ms (mOhm)	R_DC 50 ms PEC (mOhm)
0.0003	17.42	4.1620	4.1620	-0.1207	24.64	0.02	-0.750			
0.0007	45.28	4.1590	4.1588	-0.1662	24.64	0.02	-0.750			
0.0013	82.25	4.1560	4.1559	-0.2099	24.64	0.02	-0.750			
0.0020	126.55	4.1530	4.1531	-0.2512	24.64	0.02	-0.750			
0.0028	178.86	4.1500	4.1500	-0.2928	24.64	0.02	-0.750			
0.0037	239.83	4.1470	4.1471	-0.3341	24.64	0.02	-0.750			
0.0048	308.40	4.1440	4.1439	-0.3649	24.63	0.01	-0.750			
0.0060	382.02	4.1410	4.1411	-0.4077	24.63	0.01	-0.750			
0.0073	465.05	4.1380	4.1380	-0.4426	24.63	0.01	-0.750			
0.0087	553.77	4.1350	4.1347	-0.4730	24.62	0.00	-0.750			
0.0101	648.47	4.1320	4.1321	-0.5030	24.62	0.00	-0.750			
0.0117	747.88	4.1290	4.1290	-0.5313	24.62	-0.00	-0.750			
0.0133	854.24	4.1260	4.1259	-0.5574	24.61	-0.01	-0.750			
0.0151	964.25	4.1230	4.1230	-0.5779	24.61	-0.01	-0.750			
0.0167	1071.64	4.1200	4.1202	-0.6170	24.61	-0.01	-0.750			
0.0187	1199.32	4.1170	4.1169	-0.6472	24.60	-0.02	-0.750			
0.0207	1327.77	4.1140	4.1135	-0.6691	24.60	-0.02	-0.750			
0.0228	1462.03	4.1110	4.1114	-0.6803	24.59	-0.03	-0.750			
0.0249	1595.43	4.1080	4.1081	-0.6833	24.59	-0.03	-0.750			
0.0270	1729.41	4.1050	4.1050	-0.6907	24.59	-0.03	-0.750			
0.0291	1859.55	4.1020	4.1019	-0.6881	24.59	-0.03	-0.750			
0.0310	1986.43	4.0990	4.0990	-0.6857	24.58	-0.04	-0.750			
0.0331	2120.34	4.0960	4.0960	-0.6951	24.58	-0.04	-0.750			
0.0352	2254.84	4.0930	4.0930	-0.7007	24.58	-0.04	-0.750			
0.0374	2391.71	4.0900	4.0899	-0.7061	24.58	-0.04	-0.750			
0.0395	2528.33	4.0870	4.0870	-0.7092	24.58	-0.04	-0.750			
0.0416	2663.09	4.0840	4.0840	-0.7152	24.58	-0.04	-0.750			
0.0438	2800.93	4.0810	4.0811	-0.7164	24.57	-0.05	-0.750			
0.0459	2938.84	4.0780	4.0778	-0.7235	24.57	-0.05	-0.750			
0.0481	3078.31	4.0750	4.0754	-0.7295	24.57	-0.05	-0.750			
0.0503	3220.35	4.0720	4.0718	-0.7326	24.57	-0.05	-0.750			
0.0525	3359.93	4.0690	4.0690	-0.7393	24.57	-0.05	-0.750			
0.0548	3504.23	4.0660	4.0661	-0.7344	24.58	-0.04	-0.750			
0.0570	3647.16	4.0630	4.0630	-0.7376	24.58	-0.04	-0.750			
0.0592	3786.66	4.0600	4.0599	-0.7385	24.58	-0.04	-0.750			
0.0613	3925.81	4.0570	4.0570	-0.7357	24.58	-0.04	-0.750			
0.0636	4068.10	4.0540	4.0539	-0.7392	24.58	-0.04	-0.750			
0.0658	4209.95	4.0510	4.0509	-0.7484	24.58	-0.04	-0.750			
0.0680	4352.96	4.0480	4.0482	-0.7526	24.58	-0.04	-0.750			
0.0704	4503.18	4.0450	4.0450	-0.7598	24.58	-0.04	-0.750			
0.0726	4649.56	4.0420	4.0419	-0.7562	24.58	-0.04	-0.750			
0.0749	4793.12	4.0390	4.0391	-0.7568	24.58	-0.04	-0.750			
0.0771	4934.66	4.0360	4.0361	-0.7670	24.59	-0.03	-0.750			
0.0794	5084.23	4.0330	4.0329	-0.7625	24.59	-0.03	-0.750			
0.0817	5230.02	4.0300	4.0300	-0.7618	24.59	-0.03	-0.750			
0.0840	5379.08	4.0270	4.0269	-0.7665	24.60	-0.02	-0.750			
0.0864	5527.29	4.0240	4.0241	-0.7675	24.60	-0.02	-0.750			
0.0887	5674.81	4.0210	4.0209	-0.7671	24.60	-0.02	-0.750			
0.0909	5819.41	4.0180	4.0181	-0.7678	24.60	-0.02	-0.750			
0.0933	5968.46	4.0150	4.0149	-0.7723	24.60	-0.02	-0.750			
0.0956	6115.54	4.0120	4.0120	-0.7718	24.60	-0.02	-0.750			
0.0979	6262.49	4.0090	4.0091	-0.7739	24.60	-0.02	-0.750			
0.1002	6410.75	4.0060	4.0060	-0.7795	24.60	-0.02	-0.750			
0.1025	6560.29	4.0030	4.0030	-0.7856	24.60	-0.02	-0.750			
0.1049	6712.82	4.0000	4.0000	-0.7864	24.61	-0.01	-0.750			
0.1073	6864.71	3.9970	3.9970	-0.7845	24.61	-0.01	-0.750			
0.1097	7019.03	3.9940	3.9940	-0.7851	24.61	-0.01	-0.750			
0.1120	7167.52	3.9910	3.9911	-0.7788	24.61	-0.01	-0.750			
0.1143	7313.35	3.9880	3.9880	-0.7800	24.61	-0.01	-0.750			
0.1166	7462.90	3.9850	3.9848	-0.7842	24.61	-0.01	-0.750			
0.1189	7612.48	3.9820	3.9820	-0.7878	24.62	-0.00	-0.750			
0.1214	7766.93	3.9790	3.9788	-0.7898	24.62	-0.00	-0.750			
0.1238	7920.67	3.9760	3.9763	-0.7974	24.62	0.00	-0.750			
0.1262	8073.68	3.9730	3.9730	-0.7974	24.62	0.00	-0.750			
0.1285	8226.31	3.9700	3.9700	-0.7913	24.63	0.01	-0.750			
0.1309	8375.88	3.9670	3.9669	-0.7858	24.63	0.01	-0.750			
0.1332	8527.60	3.9640	3.9640	-0.7931	24.64	0.02	-0.750			
0.1356	8680.07	3.9610	3.9614	-0.7964	24.64	0.02	-0.750			
0.1380	8834.25	3.9580	3.9579	-0.7980	24.64	0.02	-0.750			
0.1404	8985.77	3.9550	3.9550	-0.8033	24.64	0.02	-0.750			
0.1429	9142.67	3.9520	3.9520	-0.8095	24.64	0.02	-0.750			
0.1453	9299.35	3.9490	3.9489	-0.8125	24.64	0.02	-0.750			
0.1477	9454.65	3.9460	3.9461	-0.8098	24.64	0.02	-0.750			
0.1502	9609.61	3.9430	3.9430	-0.8117	24.64	0.02	-0.750			
0.1526	9766.66	3.9400	3.9399	-0.8217	24.65	0.03	-0.750			
0.1551	9926.26	3.9370	3.9369	-0.8190	24.65	0.03	-0.750			
0.1575	10081.94	3.9340	3.9340	-0.8146	24.65	0.03	-0.750			
0.1600	10241.27	3.9310	3.9313	-0.8183	24.66	0.04	-0.750			
0.1625	10396.85	3.9280	3.9278	-0.8235	24.66	0.04	-0.750			
0.1649	10552.95	3.9250	3.9248	-0.8299	24.67	0.05	-0.750			
0.1674	10712.90	3.9220	3.9220	-0.8310	24.67	0.05	-0.750			
0.1699	10873.27	3.9190	3.9190	-0.8275	24.67	0.05	-0.750			
0.1725	11039.83	3.9160	3.9162	-0.8386	24.68	0.06	-0.750			
0.1750	11198.33	3.9130	3.9129	-0.8393	24.68	0.06	-0.750			
0.1775	11358.85	3.9100	3.9100	-0.8364	24.69	0.07	-0.750			
0.1800	11517.44	3.9070	3.9068	-0.8334	24.69	0.07	-0.750			
0.1824	11675.45	3.9040	3.9040	-0.8360	24.69	0.07	-0.750			
0.1850	11839.85	3.9010	3.9012	-0.8496	24.70	0.08	-0.750			
0.1876	12003.57	3.8980	3.8978	-0.8454	24.70	0.08	-0.750			
0.1901	12166.57	3.8950	3.8950	-0.8540	24.70	0.08	-0.750			
0.1927	12332.47	3.8920	3.8920	-0.8490	24.70	0.08	-0.750			
0.1952	12495.34	3.8890	3.8889	-0.8495	24.70	0.08	-0.750			
0.1978	12660.05	3.8860	3.8863	-0.8476	24.70	0.08	-0.750			
0.2003	12821.91	3.8830	3.8829	-0.8382	24.70	0.08	-0.750			
0.2028	12980.65	3.8800	3.8799	-0.8388	24.71	0.09	-0.750			
0.2054	13143.07	3.8770	3.8770	-0.8330	24.71	0.09	-0.750			
0.2079	13302.52	3.8740	3.8740	-0.8385	24.72	0.10	-0.750			
0.2104	13463.88	3.8710	3.8712	-0.8354	24.72	0.10	-0.750			
0.2128	13621.98	3.8680	3.8679	-0.8342	24.72	0.10	-0.750			
0.2154	13782.79	3.8650	3.8651	-0.8403	24.73	0.11	-0.750			
0.2179	13944.11	3.8620	3.8619	-0.8402	24.73	0.11	-0.750			
0.2204	14104.68	3.8590	3.8590	-0.8411	24.74	0.12	-0.750			
0.2230	14269.94	3.8560	3.8561	-0.8485	24.74	0.12	-0.750			
0.2255	14431.78	3.8530	3.8529	-0.8415	24.74	0.12	-0.750			
0.2281	14595.80	3.8500	3.8500	-0.8467	24.74	0.12	-0.750			
0.2306	14758.64	3.8470	3.8470	-0.8373	24.75	0.13	-0.750			
0.2331	14918.46	3.8440	3.8440	-0.8315	24.75	0.13	-0.750			
0.2356	15078.63	3.8410	3.8415	-0.8295	24.75	0.13	-0.750			
0.2381	15235.65	3.8380	3.8379	-0.8249	24.75	0.13	-0.750			
0.2405	15392.80	3.8350	3.8349	-0.8229	24.75	0.13	-0.750			
0.2430	15550.55	3.8320	3.8319	-0.8210	24.76	0.14	-0.750			
0.2455	15710.73	3.8290	3.8290	-0.8227	24.76	0.14	-0.750			
0.2479	15868.35	3.8260	3.8261	-0.8143	24.76	0.14	-0.750			
0.2504	16023.16	3.8230	3.8230	-0.8122	24.76	0.14	-0.750			
0.2528	16179.13	3.8200	3.8201	-0.8104	24.77	0.15	-0.750			
0.2552	16332.04	3.8170	3.8169	-0.8066	24.77	0.15	-0.750			
0.2576	16488.00	3.8140	3.8140	-0.8006	24.78	0.16	-0.750			
0.2600	16642.80	3.8110	3.8112	-0.7992	24.78	0.16	-0.750			
0.2624	16796.03	3.8080	3.8079	-0.7900	24.78	0.16	-0.750			
0.2648	16946.11	3.8050	3.8048	-0.7898	24.79	0.17	-0.750			
0.2671	17096.38	3.8020	3.8021	-0.7819	24.79	0.17	-0.750			
0.2695	17245.01	3.7990	3.7989	-0.7775	24.79	0.17	-0.750			
0.2718	17395.02	3.7960	3.7959	-0.7789	24.80	0.18	-0.750			
0.2742	17546.42	3.7930	3.7929	-0.7780	24.80	0.18	-0.750			
0.2764	17691.91	3.7900	3.7900	-0.7814	24.80	0.18	-0.750			
0.2788	17843.73	3.7870	3.7869	-0.7813	24.80	0.18	-0.750			
0.2811	17992.70	3.7840	3.7840	-0.7721	24.80	0.18	-0.750			
0.2835	18143.93	3.7810	3.7809	-0.7713	24.80	0.18	-0.750			
0.2858	18291.71	3.7780	3.7786	-0.7732	24.80	0.18	-0.750			
0.2881	18438.78	3.7750	3.7750	-0.7723	24.80	0.18	-0.750			
0.2904	18586.28	3.7720	3.7718	-0.7771	24.81	0.19	-0.750			
0.2927	18734.42	3.7690	3.7691	-0.7783	24.81	0.19	-0.750			
0.2951	18884.97	3.7660	3.7659	-0.7872	24.82	0.20	-0.750			
0.2975	19037.08	3.7630	3.7631	-0.7892	24.82	0.20	-0.750			
0.2998	19188.38	3.7600	3.7600	-0.7996	24.82	0.20	-0.750			
0.3022	19341.46	3.7570	3.7570	-0.8118	24.82	0.20	-0.750			
0.3047	19500.29	3.7540	3.7539	-0.8170	24.82	0.20	-0.750			
0.3072	19659.63	3.7510	3.7509	-0.8194	24.82	0.20	-0.750			
0.3097	19818.77	3.7480	3.7480	-0.8324	24.82	0.20	-0.750			
0.3122	19978.57	3.7450	3.7448	-0.8367	24.82	0.20	-0.750			
0.3147	20140.08	3.7420	3.7419	-0.8403	24.82	0.20	-0.750			
0.3172	20297.79	3.7390	3.7389	-0.8443	24.82	0.20	-0.750			
0.3197	20459.23	3.7360	3.7361	-0.8550	24.82	0.20	-0.750			
0.3223	20629.81	3.7330	3.7330	-0.8783	24.82	0.20	-0.750			
0.3250	20796.88	3.7300	3.7297	-0.8940	24.82	0.20	-0.750			
0.3276	20967.77	3.7270	3.7271	-0.9052	24.82	0.20	-0.750			
0.3304	21146.89	3.7240	3.7239	-0.9167	24.82	0.20	-0.750			
0.3332	21324.40	3.7210	3.7209	-0.9259	24.82	0.20	-0.750			
0.3360	21504.60	3.7180	3.7183	-0.9351	24.82	0.20	-0.750			
0.3388	21685.05	3.7150	3.7149	-0.9551	24.81	0.19	-0.750			
0.3417	21869.14	3.7120	3.7119	-0.9673	24.81	0.19	-0.750			
0.3446	22054.40	3.7090	3.7089	-0.9872	24.81	0.19	-0.750			
0.3476	22247.43	3.7060	3.7063	-1.0038	24.80	0.18	-0.750			
0.3507	22443.92	3.7030	3.7028	-1.0276	24.80	0.18	-0.750			
0.3538	22645.76	3.7000	3.6999	-1.0336	24.80	0.18	-0.750	0.364	0.506	
0.3569	22844.10	3.6970	3.6968	-1.0394	24.79	0.17	-0.750			
0.3601	23045.92	3.6940	3.6943	-1.0564	24.79	0.17	-0.750			
0.3632	23246.40	3.6910	3.6909	-1.0642	24.79	0.17	-0.750			
0.3664	23447.05	3.6880	3.6879	-1.0770	24.79	0.17	-0.750			
0.3696	23655.64	3.6850	3.6850	-1.1039	24.78	0.16	-0.750			
0.3729	23866.94	3.6820	3.6819	-1.1488	24.78	0.16	-0.750			
0.3765	24093.35	3.6790	3.6789	-1.1713	24.77	0.15	-0.750			
0.3801	24323.81	3.6760	3.6759	-1.1855	24.77	0.15	-0.750			
0.3836	24549.50	3.6730	3.6729	-1.2191	24.76	0.14	-0.750			
0.3873	24789.21	3.6700	3.6698	-1.2305	24.76	0.14	-0.750			
0.3910	25026.20	3.6670	3.6669	-1.2398	24.75	0.13	-0.750			
0.3947	25263.89	3.6640	3.6638	-1.2468	24.74	0.12	-0.750			
0.3985	25505.42	3.6610	3.6614	-1.2812	24.73	0.11	-0.750			
0.4024	25752.15	3.6580	3.6579	-1.2980	24.73	0.11	-0.750			
0.4063	26002.51	3.6550	3.6549	-1.3214	24.72	0.10	-0.750			
0.4103	26256.37	3.6520	3.6520	-1.3521	24.72	0.10	-0.750			
0.4143	26518.01	3.6490	3.6490	-1.3971	24.71	0.09	-0.750			
0.4186	26790.25	3.6460	3.6460	-1.4179	24.71	0.09	-0.750			
0.4229	27067.70	3.6430	3.6434	-1.4376	24.70	0.08	-0.750			
0.4273	27346.01	3.6400	3.6397	-1.4523	24.69	0.07	-0.750			
0.4316	27625.14	3.6370	3.6373	-1.4894	24.69	0.07	-0.750			
0.4361	27910.65	3.6340	3.6340	-1.5175	24.68	0.06	-0.750			
0.4408	28211.92	3.6310	3.6310	-1.5355	24.67	0.05	-0.750			
0.4454	28503.12	3.6280	3.6279	-1.5660	24.66	0.04	-0.750			
0.4503	28818.82	3.6250	3.6247	-1.5919	24.66	0.04	-0.750			
0.4551	29129.10	3.6220	3.6217	-1.6175	24.65	0.03	-0.750			
0.4601	29448.45	3.6190	3.6194	-1.6148	24.64	0.02	-0.750			
0.4651	29769.10	3.6160	3.6155	-1.5807	24.64	0.02	-0.750			
0.4698	30068.63	3.6130	3.6132	-1.5817	24.63	0.01	-0.750			
0.4743	30352.11	3.6100	3.6105	-1.5799	24.63	0.01	-0.750			
0.4790	30655.93	3.6070	3.6064	-1.6672	24.63	0.01	-0.750			
0.4841	30980.83	3.6040	3.6038	-1.7354	24.62	0.00	-0.750			
0.4893	31316.82	3.6010	3.6009	-1.8088	24.61	-0.01	-0.750			
0.4952	31695.87	3.5980	3.5981	-1.9057	24.60	-0.02	-0.750			
0.5010	32061.77	3.5950	3.5951	-1.9573	24.60	-0.02	-0.750			
0.5066	32424.51	3.5920	3.5922	-1.9713	24.59	-0.03	-0.750			
0.5127	32811.48	3.5890	3.5886	-1.9766	24.58	-0.04	-0.750			
0.5188	33200.87	3.5860	3.5857	-2.0382	24.58	-0.04	-0.750			
0.5250	33597.46	3.5830	3.5833	-2.0717	24.58	-0.04	-0.750			
0.5314	34011.11	3.5800	3.5799	-2.1001	24.57	-0.05	-0.750			
0.5376	34407.14	3.5770	3.5766	-2.0892	24.56	-0.06	-0.750			
0.5439	34806.40	3.5740	3.5736	-2.1517	24.56	-0.06	-0.750			
0.5503	35222.06	3.5710	3.5704	-2.1574	24.56	-0.06	-0.750			
0.5570	35648.11	3.5680	3.5680	-2.2416	24.55	-0.07	-0.750			
0.5635	36066.57	3.5650	3.5656	-2.1940	24.55	-0.07	-0.750			
0.5702	36492.60	3.5620	3.5619	-2.1940	24.54	-0.08	-0.750			
0.5766	36899.68	3.5590	3.5591	-2.1451	24.54	-0.08	-0.750			
0.5829	37306.76	3.5560	3.5568	-2.1796	24.54	-0.08	-0.750			
0.5895	37727.24	3.5530	3.5528	-2.1866	24.54	-0.08	-0.750			
0.5961	38147.73	3.5500	3.5502	-2.1335	24.54	-0.08	-0.750			
0.6028	38580.24	3.5470	3.5463	-2.1732	24.55	-0.07	-0.750			
0.6089	38968.99	3.5440	3.5439	-2.0821	24.56	-0.06	-0.750			
0.6152	39372.06	3.5410	3.5413	-2.0248	24.56	-0.06	-0.750			
0.6214	39767.62	3.5380	3.5383	-2.0337	24.56	-0.06	-0.750			
0.6273	40147.54	3.5350	3.5351	-2.0245	24.57	-0.05	-0.750			
0.6332	40524.52	3.5320	3.5319	-1.9324	24.58	-0.04	-0.750			
0.6390	40899.13	3.5290	3.5286	-1.9086	24.59	-0.03	-0.750			
0.6447	41262.32	3.5260	3.5258	-1.8508	24.59	-0.03	-0.750			
0.6504	41624.45	3.5230	3.5226	-1.8352	24.60	-0.02	-0.750			
0.6557	41964.72	3.5200	3.5196	-1.7732	24.61	-0.01	-0.750			
0.6608	42290.99	3.5170	3.5172	-1.7058	24.62	0.00	-0.750			
0.6658	42612.71	3.5140	3.5147	-1.6855	24.64	0.02	-0.750			
0.6710	42942.82	3.5110	3.5112	-1.6593	24.65	0.03	-0.750			
0.6759	43257.92	3.5080	3.5076	-1.5966	24.67	0.05	-0.750			
0.6808	43569.49	3.5050	3.5048	-1.5615	24.68	0.06	-0.750			
0.6854	43866.70	3.5020	3.5026	-1.5296	24.69	0.07	-0.750			
0.6899	44156.06	3.4990	3.4985	-1.4769	24.70	0.08	-0.750			
0.6942	44425.74	3.4960	3.4960	-1.4012	24.71	0.09	-0.750			
0.6981	44680.27	3.4930	3.4935	-1.3654	24.72	0.10	-0.750			
0.7025	44958.07	3.4900	3.4899	-1.3499	24.74	0.12	-0.750			
0.7064	45210.75	3.4870	3.4868	-1.2889	24.75	0.13	-0.750			
0.7103	45461.43	3.4840	3.4841	-1.3494	24.77	0.15	-0.750			
