Ah_balance (normalized)	Ah_balance (mAh)	Voltage - fit (V)	Voltage -  interpolate (V)	dQ/dV (1/V)	Temperature (°C)	Temperature - diff (°C)	Current (C)	R_DC 0ms (mOhm)	R_DC 50ms (mOhm)	R_DC 50 ms PEC (mOhm)
-0.0082	-526.60	4.2000	3.9353	0.8094	24.22	-0.02	-4.504			
-0.0074	-474.45	4.1990	4.1988	0.8073	24.22	-0.02	0.050			
-0.0066	-422.31	4.1980	4.1978	0.8254	24.22	-0.02	0.050			
-0.0058	-369.20	4.1970	4.1972	0.8304	24.22	-0.02	0.050			
-0.0049	-316.05	4.1960	4.1959	0.8320	24.22	-0.02	0.050			
-0.0041	-263.57	4.1950	4.1950	0.8323	24.22	-0.02	0.050			
-0.0033	-209.75	4.1940	4.1942	0.8366	24.22	-0.02	0.050			
-0.0024	-155.70	4.1930	4.1931	0.8396	24.22	-0.02	0.050			
-0.0016	-101.05	4.1920	4.1920	0.8408	24.22	-0.02	0.050			
-0.0007	-46.95	4.1910	4.1911	0.8413	24.22	-0.02	0.050			
0.0001	7.16	4.1900	4.1899	0.8415	24.22	-0.02	0.050			
0.0010	61.16	4.1890	4.1891	0.8415	24.22	-0.02	0.050			
0.0018	115.68	4.1880	4.1880	0.8422	24.21	-0.03	0.050			
0.0026	169.17	4.1870	4.1869	0.8426	24.22	-0.02	0.050			
0.0035	223.16	4.1860	4.1860	0.8443	24.21	-0.03	0.050			
0.0043	276.90	4.1850	4.1851	0.8454	24.21	-0.03	0.050			
0.0052	331.69	4.1840	4.1839	0.8445	24.22	-0.02	0.050			
0.0060	385.74	4.1830	4.1830	0.8440	24.21	-0.03	0.050			
0.0069	439.71	4.1820	4.1819	0.8434	24.21	-0.03	0.050			
0.0077	493.55	4.1810	4.1808	0.8431	24.21	-0.03	0.050			
0.0086	547.90	4.1800	4.1801	0.8423	24.20	-0.04	0.050			
0.0094	601.35	4.1790	4.1790	0.8428	24.21	-0.03	0.050	0.140	0.222	
0.0102	655.67	4.1780	4.1780	0.8429	24.21	-0.03	0.050			
0.0111	709.39	4.1770	4.1770	0.8430	24.21	-0.03	0.050			
0.0119	763.10	4.1760	4.1761	0.8421	24.20	-0.04	0.050			
0.0128	816.73	4.1750	4.1752	0.8408	24.20	-0.04	0.050			
0.0136	870.38	4.1740	4.1742	0.8419	24.20	-0.04	0.050			
0.0145	924.89	4.1730	4.1729	0.8445	24.20	-0.04	0.050			
0.0153	979.20	4.1720	4.1719	0.8449	24.20	-0.04	0.050			
0.0161	1033.11	4.1710	4.1710	0.8445	24.20	-0.04	0.050			
0.0170	1086.70	4.1700	4.1700	0.8449	24.19	-0.05	0.050			
0.0178	1140.97	4.1690	4.1691	0.8455	24.20	-0.04	0.050			
0.0187	1194.91	4.1680	4.1681	0.8450	24.20	-0.04	0.050			
0.0195	1248.90	4.1670	4.1670	0.8433	24.20	-0.04	0.050			
0.0204	1302.48	4.1660	4.1660	0.8452	24.20	-0.04	0.050			
0.0212	1356.67	4.1650	4.1650	0.8469	24.19	-0.05	0.050			
0.0221	1411.42	4.1640	4.1641	0.8502	24.20	-0.04	0.050			
0.0229	1465.83	4.1630	4.1631	0.8510	24.20	-0.04	0.050			
0.0238	1520.52	4.1620	4.1620	0.8497	24.19	-0.05	0.050			
0.0246	1575.41	4.1610	4.1607	0.8490	24.18	-0.06	0.050			
0.0255	1629.66	4.1600	4.1602	0.8497	24.20	-0.04	0.050			
0.0263	1684.04	4.1590	4.1590	0.8503	24.20	-0.04	0.050			
0.0272	1738.72	4.1580	4.1579	0.8500	24.18	-0.06	0.050			
0.0280	1793.85	4.1570	4.1569	0.8492	24.19	-0.05	0.050			
0.0289	1847.83	4.1560	4.1560	0.8477	24.19	-0.05	0.050	0.366	0.454	
0.0297	1902.58	4.1550	4.1551	0.8463	24.18	-0.06	0.050			
0.0306	1956.33	4.1540	4.1540	0.8466	24.19	-0.05	0.050			
0.0314	2009.90	4.1530	4.1532	0.8473	24.19	-0.05	0.050			
0.0323	2064.72	4.1520	4.1518	0.8469	24.20	-0.04	0.050			
0.0331	2118.39	4.1510	4.1512	0.8472	24.19	-0.05	0.050			
0.0339	2170.59	4.1500	4.1500	0.8523	24.19	-0.05	0.050			
0.0347	2223.95	4.1490	4.1492	0.8592	24.19	-0.05	0.050			
0.0356	2278.16	4.1480	4.1481	0.8649	24.19	-0.05	0.050			
0.0365	2333.08	4.1470	4.1468	0.8702	24.19	-0.05	0.050			
0.0373	2387.91	4.1460	4.1462	0.8723	24.20	-0.04	0.050			
0.0382	2443.75	4.1450	4.1449	0.8776	24.19	-0.05	0.050			
0.0391	2501.99	4.1440	4.1441	0.8805	24.20	-0.04	0.050			
0.0400	2559.44	4.1430	4.1431	0.8821	24.20	-0.04	0.050			
0.0409	2616.86	4.1420	4.1417	0.8852	24.20	-0.04	0.050			
0.0418	2674.76	4.1410	4.1408	0.8870	24.20	-0.04	0.050			
0.0427	2732.64	4.1400	4.1401	0.8892	24.20	-0.04	0.050			
0.0436	2790.75	4.1390	4.1392	0.8897	24.20	-0.04	0.050			
0.0445	2848.72	4.1380	4.1381	0.8906	24.21	-0.03	0.050			
0.0454	2906.88	4.1370	4.1371	0.8880	24.20	-0.04	0.050			
0.0463	2964.42	4.1360	4.1362	0.8862	24.20	-0.04	0.050			
0.0472	3021.49	4.1350	4.1351	0.8822	24.20	-0.04	0.050			
0.0481	3077.87	4.1340	4.1340	0.8776	24.20	-0.04	0.050			
0.0490	3133.20	4.1330	4.1329	0.8739	24.19	-0.05	0.050			
0.0498	3188.88	4.1320	4.1319	0.8693	24.19	-0.05	0.050			
0.0507	3243.09	4.1310	4.1311	0.8667	24.20	-0.04	0.050			
0.0515	3296.04	4.1300	4.1301	0.8603	24.20	-0.04	0.050			
0.0524	3351.00	4.1290	4.1290	0.8555	24.19	-0.05	0.050			
0.0532	3407.31	4.1280	4.1279	0.8497	24.18	-0.06	0.050			
0.0541	3462.85	4.1270	4.1269	0.8439	24.18	-0.06	0.050			
0.0550	3517.76	4.1260	4.1259	0.8369	24.18	-0.06	0.050			
0.0558	3571.82	4.1250	4.1251	0.8307	24.18	-0.06	0.050			
0.0566	3625.51	4.1240	4.1240	0.8277	24.18	-0.06	0.050			
0.0575	3677.55	4.1230	4.1230	0.8255	24.18	-0.06	0.050			
0.0583	3729.32	4.1220	4.1221	0.8215	24.17	-0.07	0.050			
0.0591	3780.44	4.1210	4.1212	0.8168	24.17	-0.07	0.050			
0.0599	3831.80	4.1200	4.1203	0.8164	24.17	-0.07	0.050			
0.0607	3882.76	4.1190	4.1193	0.8140	24.16	-0.08	0.050			
0.0615	3933.21	4.1180	4.1177	0.8161	24.17	-0.07	0.050			
0.0623	3984.50	4.1170	4.1167	0.8172	24.17	-0.07	0.050			
0.0630	4035.19	4.1160	4.1158	0.8172	24.16	-0.08	0.050			
0.0639	4086.80	4.1150	4.1147	0.8206	24.17	-0.07	0.050			
0.0647	4138.31	4.1140	4.1140	0.8261	24.18	-0.06	0.050			
0.0655	4190.02	4.1130	4.1131	0.8289	24.17	-0.07	0.050			
0.0663	4243.41	4.1120	4.1123	0.8337	24.16	-0.08	0.050			
0.0671	4296.71	4.1110	4.1110	0.8392	24.16	-0.08	0.050			
0.0680	4351.71	4.1100	4.1100	0.8457	24.16	-0.08	0.050			
0.0689	4407.78	4.1090	4.1090	0.8518	24.16	-0.08	0.050	0.141	0.286	
0.0698	4465.10	4.1080	4.1081	0.8578	24.16	-0.08	0.050			
0.0706	4521.27	4.1070	4.1069	0.8619	24.16	-0.08	0.050			
0.0715	4576.71	4.1060	4.1059	0.8625	24.15	-0.09	0.050			
0.0724	4631.93	4.1050	4.1051	0.8628	24.15	-0.09	0.050			
0.0732	4686.92	4.1040	4.1040	0.8637	24.16	-0.08	0.050			
0.0741	4742.03	4.1030	4.1030	0.8635	24.16	-0.08	0.050			
0.0749	4796.70	4.1020	4.1020	0.8656	24.16	-0.08	0.050			
0.0758	4852.65	4.1010	4.1011	0.8658	24.15	-0.09	0.050			
0.0767	4908.47	4.1000	4.1000	0.8671	24.16	-0.08	0.050			
0.0776	4963.72	4.0990	4.0990	0.8672	24.16	-0.08	0.050			
0.0784	5018.81	4.0980	4.0978	0.8655	24.16	-0.08	0.050			
0.0793	5074.90	4.0970	4.0970	0.8655	24.16	-0.08	0.050			
0.0802	5130.06	4.0960	4.0960	0.8650	24.16	-0.08	0.050			
0.0810	5185.27	4.0950	4.0950	0.8643	24.17	-0.07	0.050			
0.0819	5240.65	4.0940	4.0939	0.8649	24.17	-0.07	0.050			
0.0827	5295.60	4.0930	4.0928	0.8646	24.17	-0.07	0.050			
0.0836	5351.23	4.0920	4.0921	0.8675	24.16	-0.08	0.050			
0.0845	5407.09	4.0910	4.0911	0.8674	24.17	-0.07	0.050			
0.0854	5462.73	4.0900	4.0901	0.8682	24.18	-0.06	0.050			
0.0862	5518.30	4.0890	4.0890	0.8693	24.18	-0.06	0.050			
0.0871	5574.15	4.0880	4.0881	0.8688	24.19	-0.05	0.050			
0.0880	5629.43	4.0870	4.0868	0.8673	24.18	-0.06	0.050			
0.0888	5684.93	4.0860	4.0857	0.8679	24.18	-0.06	0.050			
0.0897	5740.32	4.0850	4.0850	0.8680	24.18	-0.06	0.050			
0.0906	5795.41	4.0840	4.0839	0.8681	24.18	-0.06	0.050			
0.0914	5851.05	4.0830	4.0832	0.8690	24.18	-0.06	0.050			
0.0923	5906.45	4.0820	4.0821	0.8695	24.16	-0.08	0.050			
0.0932	5962.11	4.0810	4.0810	0.8724	24.17	-0.07	0.050			
0.0940	6018.46	4.0800	4.0800	0.8744	24.16	-0.08	0.050			
0.0949	6074.42	4.0790	4.0790	0.8748	24.16	-0.08	0.050			
0.0958	6130.76	4.0780	4.0779	0.8753	24.16	-0.08	0.050			
0.0967	6187.29	4.0770	4.0770	0.8760	24.16	-0.08	0.050			
0.0976	6243.24	4.0760	4.0761	0.8755	24.16	-0.08	0.050			
0.0984	6298.50	4.0750	4.0749	0.8741	24.17	-0.07	0.050			
0.0993	6354.95	4.0740	4.0739	0.8765	24.16	-0.08	0.050			
0.1002	6410.71	4.0730	4.0730	0.8768	24.16	-0.08	0.050			
0.1010	6467.04	4.0720	4.0722	0.8773	24.16	-0.08	0.050			
0.1019	6523.41	4.0710	4.0710	0.8794	24.16	-0.08	0.050			
0.1028	6580.15	4.0700	4.0700	0.8793	24.16	-0.08	0.050			
0.1037	6636.43	4.0690	4.0691	0.8792	24.16	-0.08	0.050			
0.1046	6692.92	4.0680	4.0678	0.8800	24.16	-0.08	0.050			
0.1055	6749.61	4.0670	4.0670	0.8797	24.16	-0.08	0.050			
0.1063	6805.44	4.0660	4.0660	0.8795	24.16	-0.08	0.050			
0.1072	6862.00	4.0650	4.0651	0.8786	24.16	-0.08	0.050			
0.1081	6918.10	4.0640	4.0640	0.8778	24.17	-0.07	0.050			
0.1090	6973.67	4.0630	4.0627	0.8771	24.17	-0.07	0.050	1.417	0.476	
0.1098	7026.42	4.0620	4.0621	0.8899	24.18	-0.06	0.050			
0.1107	7082.79	4.0610	4.0610	0.8972	24.18	-0.06	0.050			
0.1116	7139.85	4.0600	4.0600	0.9024	24.18	-0.06	0.050			
0.1125	7197.97	4.0590	4.0590	0.9070	24.17	-0.07	0.050			
0.1134	7256.53	4.0580	4.0580	0.9132	24.18	-0.06	0.050			
0.1143	7315.50	4.0570	4.0570	0.9151	24.19	-0.05	0.050			
0.1152	7374.92	4.0560	4.0559	0.9197	24.20	-0.04	0.050			
0.1162	7435.19	4.0550	4.0546	0.9192	24.21	-0.03	0.050			
0.1171	7494.86	4.0540	4.0535	0.9217	24.22	-0.02	0.050			
0.1180	7554.84	4.0530	4.0527	0.9239	24.22	-0.02	0.050			
0.1190	7615.85	4.0520	4.0523	0.9243	24.24	-0.00	0.050			
0.1199	7675.91	4.0510	4.0514	0.9227	24.23	-0.01	0.050			
0.1209	7735.52	4.0500	4.0503	0.9219	24.25	0.01	0.050			
0.1218	7796.01	4.0490	4.0491	0.9214	24.26	0.02	0.050			
0.1227	7855.39	4.0480	4.0480	0.9192	24.27	0.03	0.050			
0.1237	7914.66	4.0470	4.0470	0.9170	24.28	0.04	0.050			
0.1246	7973.50	4.0460	4.0460	0.9124	24.28	0.04	0.050			
0.1255	8030.70	4.0450	4.0449	0.9074	24.28	0.04	0.050			
0.1264	8087.83	4.0440	4.0438	0.9005	24.29	0.05	0.050			
0.1272	8143.49	4.0430	4.0429	0.8966	24.30	0.06	0.050			
0.1281	8197.82	4.0420	4.0419	0.8876	24.30	0.06	0.050			
0.1290	8254.44	4.0410	4.0411	0.8898	24.31	0.07	0.050	0.057	0.381	
0.1299	8311.79	4.0400	4.0401	0.8936	24.30	0.06	0.050			
0.1308	8368.97	4.0390	4.0390	0.8969	24.31	0.07	0.050			
0.1317	8426.35	4.0380	4.0380	0.8973	24.31	0.07	0.050			
0.1326	8484.29	4.0370	4.0370	0.8957	24.31	0.07	0.050			
0.1335	8542.95	4.0360	4.0360	0.8916	24.30	0.06	0.050			
0.1344	8601.82	4.0350	4.0348	0.8875	24.30	0.06	0.050			
0.1353	8658.93	4.0340	4.0338	0.8843	24.31	0.07	0.050			
0.1362	8715.21	4.0330	4.0331	0.8811	24.30	0.06	0.050			
0.1371	8772.07	4.0320	4.0317	0.8793	24.30	0.06	0.050			
0.1379	8828.33	4.0310	4.0310	0.8746	24.30	0.06	0.050			
0.1388	8883.18	4.0300	4.0302	0.8741	24.29	0.05	0.050			
0.1397	8938.98	4.0290	4.0292	0.8716	24.28	0.04	0.050			
0.1405	8993.61	4.0280	4.0283	0.8723	24.28	0.04	0.050			
0.1414	9048.49	4.0270	4.0272	0.8728	24.26	0.02	0.050			
0.1422	9103.08	4.0260	4.0259	0.8749	24.26	0.02	0.050			
0.1431	9158.33	4.0250	4.0247	0.8749	24.26	0.02	0.050			
0.1440	9213.26	4.0240	4.0240	0.8769	24.26	0.02	0.050			
0.1448	9267.65	4.0230	4.0230	0.8792	24.26	0.02	0.050			
0.1457	9323.83	4.0220	4.0221	0.8830	24.25	0.01	0.050			
0.1466	9379.35	4.0210	4.0208	0.8860	24.24	0.00	0.050			
0.1474	9436.54	4.0200	4.0201	0.8908	24.24	-0.00	0.050			
0.1483	9493.96	4.0190	4.0189	0.8980	24.23	-0.01	0.050			
0.1493	9552.70	4.0180	4.0179	0.9048	24.23	-0.01	0.050	-0.097	0.317	
0.1502	9612.05	4.0170	4.0172	0.9116	24.22	-0.02	0.050			
0.1511	9672.17	4.0160	4.0161	0.9164	24.22	-0.02	0.050			
0.1521	9731.78	4.0150	4.0148	0.9196	24.22	-0.02	0.050			
0.1530	9790.79	4.0140	4.0140	0.9180	24.21	-0.03	0.050			
0.1539	9850.46	4.0130	4.0132	0.9189	24.21	-0.03	0.050			
0.1548	9909.42	4.0120	4.0120	0.9201	24.20	-0.04	0.050			
0.1558	9968.56	4.0110	4.0111	0.9205	24.20	-0.04	0.050			
0.1567	10027.36	4.0100	4.0101	0.9188	24.20	-0.04	0.050			
0.1576	10086.42	4.0090	4.0090	0.9198	24.20	-0.04	0.050			
0.1585	10145.02	4.0080	4.0079	0.9180	24.19	-0.05	0.050			
0.1594	10204.01	4.0070	4.0071	0.9174	24.20	-0.04	0.050			
0.1604	10262.59	4.0060	4.0060	0.9173	24.19	-0.05	0.050			
0.1613	10320.53	4.0050	4.0048	0.9186	24.19	-0.05	0.050			
0.1622	10379.30	4.0040	4.0039	0.9168	24.19	-0.05	0.050			
0.1631	10437.40	4.0030	4.0029	0.9192	24.18	-0.06	0.050			
0.1640	10496.15	4.0020	4.0021	0.9180	24.18	-0.06	0.050			
0.1649	10554.52	4.0010	4.0010	0.9201	24.18	-0.06	0.050			
0.1658	10613.10	4.0000	3.9998	0.9220	24.17	-0.07	0.050			
0.1668	10672.11	3.9990	3.9991	0.9261	24.18	-0.06	0.050			
0.1677	10731.18	3.9980	3.9981	0.9273	24.17	-0.07	0.050			
0.1686	10790.66	3.9970	3.9971	0.9290	24.17	-0.07	0.050			
0.1695	10850.10	3.9960	3.9960	0.9312	24.18	-0.06	0.050	-0.181	0.174	
0.1705	10910.21	3.9950	3.9950	0.9340	24.16	-0.08	0.050			
0.1714	10970.45	3.9940	3.9940	0.9359	24.16	-0.08	0.050			
0.1723	11030.32	3.9930	3.9930	0.9384	24.16	-0.08	0.050			
0.1733	11090.36	3.9920	3.9918	0.9393	24.16	-0.08	0.050			
0.1742	11151.33	3.9910	3.9912	0.9410	24.15	-0.09	0.050			
0.1752	11211.87	3.9900	3.9900	0.9422	24.16	-0.08	0.050			
0.1761	11273.04	3.9890	3.9890	0.9415	24.16	-0.08	0.050			
0.1771	11333.36	3.9880	3.9880	0.9411	24.16	-0.08	0.050			
0.1780	11394.12	3.9870	3.9870	0.9417	24.16	-0.08	0.050			
0.1790	11454.47	3.9860	3.9861	0.9414	24.16	-0.08	0.050			
0.1799	11514.45	3.9850	3.9850	0.9396	24.17	-0.07	0.050			
0.1809	11574.62	3.9840	3.9840	0.9399	24.16	-0.08	0.050			
0.1818	11634.46	3.9830	3.9829	0.9391	24.16	-0.08	0.050			
0.1827	11694.28	3.9820	3.9820	0.9404	24.18	-0.06	0.050			
0.1837	11753.91	3.9810	3.9812	0.9396	24.18	-0.06	0.050			
0.1846	11814.75	3.9800	3.9800	0.9394	24.18	-0.06	0.050			
0.1855	11873.80	3.9790	3.9790	0.9410	24.17	-0.07	0.050			
0.1865	11934.02	3.9780	3.9780	0.9413	24.18	-0.06	0.050			
0.1874	11994.21	3.9770	3.9770	0.9428	24.19	-0.05	0.050			
0.1883	12054.12	3.9760	3.9761	0.9456	24.19	-0.05	0.050			
0.1893	12112.75	3.9750	3.9751	0.9523	24.20	-0.04	0.050	0.067	0.192	
0.1902	12172.32	3.9740	3.9742	0.9616	24.20	-0.04	0.050			
0.1911	12232.54	3.9730	3.9732	0.9686	24.20	-0.04	0.050			
0.1921	12294.24	3.9720	3.9723	0.9776	24.20	-0.04	0.050			
0.1931	12357.26	3.9710	3.9709	0.9849	24.22	-0.02	0.050			
0.1941	12421.72	3.9700	3.9698	0.9925	24.22	-0.02	0.050			
0.1951	12486.46	3.9690	3.9691	0.9962	24.23	-0.01	0.050			
0.1961	12551.12	3.9680	3.9679	1.0005	24.24	-0.00	0.050			
0.1971	12617.02	3.9670	3.9668	1.0014	24.26	0.02	0.050			
0.1982	12681.99	3.9660	3.9658	1.0037	24.26	0.02	0.050			
0.1992	12747.94	3.9650	3.9652	1.0046	24.28	0.04	0.050			
0.2002	12813.42	3.9640	3.9640	1.0061	24.29	0.05	0.050			
0.2012	12878.47	3.9630	3.9633	1.0065	24.30	0.06	0.050			
0.2022	12943.93	3.9620	3.9621	1.0064	24.30	0.06	0.050			
0.2033	13009.51	3.9610	3.9609	1.0059	24.31	0.07	0.050			
0.2043	13074.13	3.9600	3.9600	1.0010	24.31	0.07	0.050			
0.2053	13138.05	3.9590	3.9591	0.9977	24.33	0.09	0.050			
0.2063	13202.14	3.9580	3.9580	0.9948	24.34	0.10	0.050			
0.2073	13264.70	3.9570	3.9570	0.9902	24.34	0.10	0.050			
0.2082	13326.39	3.9560	3.9559	0.9833	24.34	0.10	0.050			
0.2092	13387.51	3.9550	3.9550	0.9761	24.34	0.10	0.050	0.350	0.537	
0.2102	13450.96	3.9540	3.9540	0.9678	24.34	0.10	0.050			
0.2112	13514.35	3.9530	3.9530	0.9608	24.35	0.11	0.050			
0.2121	13577.20	3.9520	3.9520	0.9557	24.35	0.11	0.050			
0.2131	13638.34	3.9510	3.9511	0.9487	24.35	0.11	0.050			
0.2141	13699.41	3.9500	3.9499	0.9455	24.35	0.11	0.050			
0.2150	13760.36	3.9490	3.9490	0.9415	24.36	0.12	0.050			
0.2159	13819.85	3.9480	3.9480	0.9389	24.36	0.12	0.050			
0.2169	13879.19	3.9470	3.9469	0.9348	24.35	0.11	0.050			
0.2178	13937.56	3.9460	3.9462	0.9316	24.34	0.10	0.050			
0.2187	13995.97	3.9450	3.9453	0.9273	24.34	0.10	0.050			
0.2196	14052.47	3.9440	3.9442	0.9278	24.33	0.09	0.050			
0.2205	14109.95	3.9430	3.9426	0.9320	24.33	0.09	0.050			
0.2214	14166.82	3.9420	3.9419	0.9367	24.33	0.09	0.050			
0.2223	14225.15	3.9410	3.9410	0.9399	24.32	0.08	0.050			
0.2232	14285.03	3.9400	3.9401	0.9467	24.32	0.08	0.050			
0.2241	14344.81	3.9390	3.9389	0.9500	24.32	0.08	0.050			
0.2251	14406.23	3.9380	3.9380	0.9568	24.32	0.08	0.050			
0.2261	14468.08	3.9370	3.9371	0.9637	24.32	0.08	0.050			
0.2271	14531.63	3.9360	3.9360	0.9689	24.31	0.07	0.050			
0.2281	14596.05	3.9350	3.9348	0.9783	24.31	0.07	0.050			
0.2291	14660.84	3.9340	3.9341	0.9862	24.30	0.06	0.050			
0.2301	14726.15	3.9330	3.9329	0.9915	24.29	0.05	0.050			
0.2311	14789.57	3.9320	3.9322	0.9926	24.29	0.05	0.050			
0.2321	14853.09	3.9310	3.9311	0.9922	24.29	0.05	0.050			
0.2331	14917.30	3.9300	3.9301	0.9930	24.28	0.04	0.050			
0.2341	14981.12	3.9290	3.9291	0.9935	24.28	0.04	0.050			
0.2351	15045.13	3.9280	3.9278	0.9925	24.26	0.02	0.050			
0.2361	15108.63	3.9270	3.9269	0.9914	24.26	0.02	0.050			
0.2371	15172.11	3.9260	3.9259	0.9917	24.25	0.01	0.050			
0.2380	15235.13	3.9250	3.9251	0.9883	24.24	0.00	0.050			
0.2390	15297.47	3.9240	3.9240	0.9848	24.24	0.00	0.050			
0.2400	15359.87	3.9230	3.9228	0.9838	24.23	-0.01	0.050			
0.2410	15421.99	3.9220	3.9221	0.9846	24.22	-0.02	0.050			
0.2420	15485.20	3.9210	3.9210	0.9869	24.22	-0.02	0.050			
0.2429	15548.74	3.9200	3.9201	0.9887	24.22	-0.02	0.050			
0.2439	15612.08	3.9190	3.9189	0.9900	24.21	-0.03	0.050			
0.2449	15675.22	3.9180	3.9179	0.9917	24.20	-0.04	0.050			
0.2459	15738.68	3.9170	3.9170	0.9929	24.20	-0.04	0.050			
0.2469	15802.05	3.9160	3.9161	0.9957	24.20	-0.04	0.050			
0.2479	15865.25	3.9150	3.9149	0.9965	24.19	-0.05	0.050			
0.2489	15929.75	3.9140	3.9141	0.9982	24.18	-0.06	0.050	0.086	0.261	
0.2499	15993.80	3.9130	3.9129	0.9986	24.18	-0.06	0.050			
0.2509	16057.30	3.9120	3.9122	1.0002	24.18	-0.06	0.050			
0.2519	16121.61	3.9110	3.9111	1.0026	24.17	-0.07	0.050			
0.2529	16186.11	3.9100	3.9098	1.0030	24.16	-0.08	0.050			
0.2539	16250.21	3.9090	3.9091	1.0061	24.17	-0.07	0.050			
0.2549	16314.30	3.9080	3.9081	1.0079	24.17	-0.07	0.050			
0.2559	16379.34	3.9070	3.9070	1.0096	24.16	-0.08	0.050			
0.2569	16444.15	3.9060	3.9059	1.0112	24.16	-0.08	0.050			
0.2580	16509.34	3.9050	3.9050	1.0127	24.15	-0.09	0.050			
0.2590	16573.80	3.9040	3.9040	1.0138	24.16	-0.08	0.050			
0.2600	16639.36	3.9030	3.9029	1.0146	24.15	-0.09	0.050			
0.2610	16703.70	3.9020	3.9020	1.0145	24.14	-0.10	0.050			
0.2620	16769.37	3.9010	3.9008	1.0154	24.13	-0.11	0.050			
0.2630	16834.37	3.9000	3.8998	1.0161	24.14	-0.10	0.050			
0.2641	16899.33	3.8990	3.8991	1.0168	24.14	-0.10	0.050			
0.2651	16964.84	3.8980	3.8980	1.0161	24.14	-0.10	0.050			
0.2661	17030.00	3.8970	3.8970	1.0165	24.14	-0.10	0.050			
0.2671	17092.95	3.8960	3.8960	1.0230	24.14	-0.10	0.050			
0.2681	17157.09	3.8950	3.8949	1.0300	24.14	-0.10	0.050			
0.2691	17222.41	3.8940	3.8941	1.0377	24.15	-0.09	0.050			
0.2701	17288.03	3.8930	3.8931	1.0420	24.15	-0.09	0.050			
0.2712	17355.12	3.8920	3.8920	1.0483	24.16	-0.08	0.050			
0.2722	17422.00	3.8910	3.8908	1.0525	24.17	-0.07	0.050			
0.2733	17489.88	3.8900	3.8897	1.0573	24.18	-0.06	0.050			
0.2743	17558.24	3.8890	3.8889	1.0592	24.19	-0.05	0.050			
0.2754	17627.08	3.8880	3.8880	1.0637	24.21	-0.03	0.050			
0.2765	17696.74	3.8870	3.8867	1.0637	24.22	-0.02	0.050			
0.2776	17766.29	3.8860	3.8863	1.0656	24.24	-0.00	0.050			
0.2787	17835.00	3.8850	3.8851	1.0666	24.25	0.01	0.050			
0.2798	17904.60	3.8840	3.8841	1.0670	24.26	0.02	0.050			
0.2808	17974.12	3.8830	3.8831	1.0689	24.26	0.02	0.050			
0.2819	18043.61	3.8820	3.8820	1.0683	24.28	0.04	0.050			
0.2830	18112.45	3.8810	3.8810	1.0666	24.28	0.04	0.050			
0.2841	18180.93	3.8800	3.8800	1.0636	24.30	0.06	0.050			
0.2851	18248.41	3.8790	3.8791	1.0587	24.30	0.06	0.050			
0.2862	18315.58	3.8780	3.8779	1.0574	24.31	0.07	0.050			
0.2872	18381.33	3.8770	3.8769	1.0518	24.31	0.07	0.050			
0.2882	18445.87	3.8760	3.8760	1.0467	24.31	0.07	0.050			
0.2893	18513.62	3.8750	3.8750	1.0444	24.32	0.08	0.050	0.243	0.531	
0.2903	18582.00	3.8740	3.8740	1.0399	24.31	0.07	0.050			
0.2914	18650.10	3.8730	3.8730	1.0349	24.30	0.06	0.050			
0.2925	18717.22	3.8720	3.8718	1.0302	24.30	0.06	0.050			
0.2935	18783.26	3.8710	3.8709	1.0251	24.30	0.06	0.050			
0.2945	18848.74	3.8700	3.8699	1.0237	24.29	0.05	0.050			
0.2955	18914.67	3.8690	3.8689	1.0215	24.28	0.04	0.050			
0.2966	18979.28	3.8680	3.8681	1.0210	24.28	0.04	0.050			
0.2976	19043.92	3.8670	3.8670	1.0192	24.27	0.03	0.050			
0.2986	19107.97	3.8660	3.8663	1.0159	24.26	0.02	0.050			
0.2996	19171.79	3.8650	3.8654	1.0157	24.25	0.01	0.050			
0.3006	19235.45	3.8640	3.8638	1.0163	24.25	0.01	0.050			
0.3015	19298.57	3.8630	3.8629	1.0178	24.25	0.01	0.050			
0.3025	19362.36	3.8620	3.8618	1.0233	24.24	0.00	0.050			
0.3035	19426.41	3.8610	3.8608	1.0277	24.24	0.00	0.050			
0.3045	19490.99	3.8600	3.8600	1.0331	24.24	0.00	0.050			
0.3056	19556.45	3.8590	3.8589	1.0408	24.24	0.00	0.050			
0.3066	19622.81	3.8580	3.8582	1.0470	24.23	-0.01	0.050			
0.3077	19690.14	3.8570	3.8571	1.0563	24.22	-0.02	0.050			
0.3087	19758.94	3.8560	3.8559	1.0657	24.22	-0.02	0.050			
0.3098	19829.55	3.8550	3.8550	1.0740	24.21	-0.03	0.050	-0.380	0.076	
0.3109	19900.24	3.8540	3.8541	1.0847	24.22	-0.02	0.050			
0.3120	19970.66	3.8530	3.8529	1.0886	24.21	-0.03	0.050			
0.3131	20040.23	3.8520	3.8521	1.0917	24.20	-0.04	0.050			
0.3142	20110.64	3.8510	3.8511	1.0964	24.20	-0.04	0.050			
0.3153	20181.05	3.8500	3.8500	1.0996	24.20	-0.04	0.050			
0.3164	20252.38	3.8490	3.8492	1.1018	24.20	-0.04	0.050			
0.3176	20323.60	3.8480	3.8479	1.1049	24.20	-0.04	0.050			
0.3187	20395.72	3.8470	3.8470	1.1070	24.21	-0.03	0.050			
0.3198	20466.48	3.8460	3.8462	1.1073	24.20	-0.04	0.050			
0.3209	20537.47	3.8450	3.8450	1.1091	24.20	-0.04	0.050			
0.3220	20608.27	3.8440	3.8442	1.1090	24.20	-0.04	0.050			
0.3231	20678.86	3.8430	3.8430	1.1080	24.20	-0.04	0.050			
0.3242	20749.69	3.8420	3.8420	1.1070	24.20	-0.04	0.050			
0.3253	20820.10	3.8410	3.8411	1.1086	24.20	-0.04	0.050			
0.3264	20890.72	3.8400	3.8399	1.1121	24.20	-0.04	0.050			
0.3275	20962.03	3.8390	3.8390	1.1125	24.21	-0.03	0.050			
0.3287	21034.21	3.8380	3.8379	1.1120	24.21	-0.03	0.050			
0.3298	21105.20	3.8370	3.8371	1.1129	24.22	-0.02	0.050			
0.3309	21176.52	3.8360	3.8359	1.1134	24.22	-0.02	0.050			
0.3320	21248.05	3.8350	3.8351	1.1139	24.23	-0.01	0.050			
0.3331	21319.72	3.8340	3.8340	1.1100	24.22	-0.02	0.050			
0.3342	21391.69	3.8330	3.8329	1.1085	24.23	-0.01	0.050			
0.3354	21463.04	3.8320	3.8317	1.1045	24.22	-0.02	0.050			
0.3365	21534.52	3.8310	3.8309	1.1012	24.22	-0.02	0.050			
0.3376	21605.68	3.8300	3.8300	1.0992	24.22	-0.02	0.050			
0.3387	21676.49	3.8290	3.8290	1.0940	24.22	-0.02	0.050			
0.3398	21746.87	3.8280	3.8278	1.0887	24.22	-0.02	0.050			
0.3409	21817.71	3.8270	3.8270	1.0812	24.22	-0.02	0.050			
0.3420	21886.85	3.8260	3.8259	1.0723	24.22	-0.02	0.050			
0.3431	21955.91	3.8250	3.8252	1.0633	24.22	-0.02	0.050			
0.3441	22024.37	3.8240	3.8238	1.0546	24.22	-0.02	0.050			
0.3452	22092.34	3.8230	3.8229	1.0436	24.22	-0.02	0.050			
0.3462	22158.80	3.8220	3.8220	1.0318	24.21	-0.03	0.050			
0.3473	22224.60	3.8210	3.8210	1.0177	24.22	-0.02	0.050			
0.3483	22288.19	3.8200	3.8200	1.0127	24.22	-0.02	0.050			
0.3493	22352.77	3.8190	3.8191	1.0035	24.22	-0.02	0.050			
0.3503	22416.92	3.8180	3.8182	0.9941	24.22	-0.02	0.050			
0.3512	22479.75	3.8170	3.8168	0.9814	24.24	-0.00	0.050			
0.3522	22542.93	3.8160	3.8161	0.9685	24.23	-0.01	0.050			
0.3532	22606.48	3.8150	3.8149	0.9520	24.24	0.00	0.050			
0.3542	22667.85	3.8140	3.8139	0.9372	24.24	0.00	0.050			
0.3551	22728.52	3.8130	3.8129	0.9196	24.25	0.01	0.050			
0.3561	22787.93	3.8120	3.8119	0.9021	24.25	0.01	0.050			
0.3570	22846.09	3.8110	3.8106	0.8817	24.26	0.02	0.050			
0.3579	22902.45	3.8100	3.8102	0.8619	24.27	0.03	0.050			
0.3587	22957.57	3.8090	3.8092	0.8402	24.27	0.03	0.050			
0.3596	23012.06	3.8080	3.8081	0.8212	24.26	0.02	0.050			
0.3604	23064.31	3.8070	3.8072	0.8007	24.27	0.03	0.050			
0.3612	23115.06	3.8060	3.8060	0.7811	24.28	0.04	0.050			
0.3619	23164.10	3.8050	3.8049	0.7625	24.28	0.04	0.050			
0.3627	23211.53	3.8040	3.8039	0.7446	24.29	0.05	0.050			
0.3634	23256.79	3.8030	3.8030	0.7253	24.30	0.06	0.050			
0.3641	23300.88	3.8020	3.8020	0.7093	24.30	0.06	0.050			
0.3647	23343.75	3.8010	3.8009	0.6946	24.29	0.05	0.050			
0.3654	23383.61	3.8000	3.8000	0.6756	24.30	0.06	0.050			
0.3660	23425.80	3.7990	3.7989	0.6674	24.31	0.07	0.050			
0.3667	23467.04	3.7980	3.7980	0.6602	24.31	0.07	0.050			
0.3673	23508.34	3.7970	3.7969	0.6539	24.30	0.06	0.050			
0.3680	23549.42	3.7960	3.7960	0.6500	24.30	0.06	0.050			
0.3686	23590.79	3.7950	3.7950	0.6438	24.30	0.06	0.050			
0.3692	23631.54	3.7940	3.7940	0.6390	24.30	0.06	0.050	0.072	0.465	
0.3699	23672.37	3.7930	3.7929	0.6337	24.30	0.06	0.050			
0.3705	23713.14	3.7920	3.7921	0.6304	24.30	0.06	0.050			
0.3711	23753.24	3.7910	3.7910	0.6268	24.30	0.06	0.050			
0.3718	23793.02	3.7900	3.7899	0.6257	24.30	0.06	0.050			
0.3724	23832.30	3.7890	3.7891	0.6237	24.30	0.06	0.050			
0.3730	23871.97	3.7880	3.7881	0.6234	24.30	0.06	0.050			
0.3736	23910.74	3.7870	3.7870	0.6231	24.30	0.06	0.050			
0.3742	23948.51	3.7860	3.7862	0.6281	24.30	0.06	0.050			
0.3748	23987.19	3.7850	3.7852	0.6318	24.30	0.06	0.050			
0.3754	24026.28	3.7840	3.7838	0.6374	24.30	0.06	0.050			
0.3760	24065.60	3.7830	3.7829	0.6453	24.30	0.06	0.050			
0.3766	24105.16	3.7820	3.7820	0.6560	24.30	0.06	0.050			
0.3773	24145.88	3.7810	3.7811	0.6661	24.30	0.06	0.050			
0.3779	24187.88	3.7800	3.7800	0.6775	24.31	0.07	0.050			
0.3786	24231.68	3.7790	3.7790	0.6876	24.31	0.07	0.050			
0.3793	24275.23	3.7780	3.7778	0.6996	24.31	0.07	0.050			
0.3800	24319.91	3.7770	3.7769	0.7130	24.32	0.08	0.050			
0.3807	24365.67	3.7760	3.7760	0.7288	24.32	0.08	0.050			
0.3815	24412.86	3.7750	3.7749	0.7457	24.32	0.08	0.050			
0.3822	24460.81	3.7740	3.7741	0.7626	24.33	0.09	0.050			
0.3830	24511.39	3.7730	3.7731	0.7801	24.33	0.09	0.050			
0.3838	24561.59	3.7720	3.7720	0.7954	24.34	0.10	0.050			
0.3846	24613.07	3.7710	3.7713	0.8106	24.35	0.11	0.050			
0.3854	24665.02	3.7700	3.7700	0.8274	24.36	0.12	0.050			
0.3862	24718.36	3.7690	3.7690	0.8429	24.37	0.13	0.050			
0.3871	24773.04	3.7680	3.7677	0.8590	24.36	0.12	0.050			
0.3880	24828.99	3.7670	3.7670	0.8728	24.37	0.13	0.050			
0.3888	24885.06	3.7660	3.7661	0.8859	24.38	0.14	0.050			
0.3897	24942.37	3.7650	3.7651	0.9004	24.38	0.14	0.050	0.135	0.207	
0.3906	25000.76	3.7640	3.7640	0.9143	24.38	0.14	0.050			
0.3916	25060.05	3.7630	3.7630	0.9277	24.38	0.14	0.050			
0.3925	25120.02	3.7620	3.7620	0.9434	24.37	0.13	0.050			
0.3934	25180.63	3.7610	3.7611	0.9591	24.38	0.14	0.050			
0.3944	25242.57	3.7600	3.7601	0.9749	24.38	0.14	0.050			
0.3954	25306.43	3.7590	3.7589	0.9896	24.38	0.14	0.050			
0.3964	25370.28	3.7580	3.7581	1.0025	24.38	0.14	0.050			
0.3974	25435.45	3.7570	3.7570	1.0128	24.38	0.14	0.050			
0.3985	25501.26	3.7560	3.7560	1.0228	24.37	0.13	0.050			
0.3995	25566.51	3.7550	3.7549	1.0370	24.36	0.12	0.050			
0.4005	25632.92	3.7540	3.7540	1.0487	24.36	0.12	0.050			
0.4016	25700.42	3.7530	3.7529	1.0622	24.36	0.12	0.050			
0.4026	25768.44	3.7520	3.7520	1.0760	24.36	0.12	0.050			
0.4037	25837.76	3.7510	3.7511	1.0896	24.34	0.10	0.050			
0.4048	25907.33	3.7500	3.7502	1.1025	24.34	0.10	0.050			
0.4059	25978.29	3.7490	3.7490	1.1178	24.33	0.09	0.050			
0.4070	26049.86	3.7480	3.7481	1.1325	24.32	0.08	0.050			
0.4082	26123.41	3.7470	3.7468	1.1463	24.31	0.07	0.050			
0.4093	26197.58	3.7460	3.7459	1.1582	24.30	0.06	0.050	0.018	0.138	
0.4105	26272.24	3.7450	3.7451	1.1697	24.30	0.06	0.050			
0.4117	26347.72	3.7440	3.7440	1.1828	24.30	0.06	0.050			
0.4129	26423.70	3.7430	3.7431	1.1956	24.30	0.06	0.050			
0.4141	26500.93	3.7420	3.7422	1.2047	24.29	0.05	0.050			
0.4153	26578.60	3.7410	3.7410	1.2172	24.28	0.04	0.050			
0.4165	26657.77	3.7400	3.7401	1.2295	24.28	0.04	0.050			
0.4178	26737.20	3.7390	3.7390	1.2424	24.27	0.03	0.050			
0.4190	26815.19	3.7380	3.7381	1.2613	24.26	0.02	0.050			
0.4202	26893.39	3.7370	3.7370	1.2857	24.27	0.03	0.050			
0.4215	26973.83	3.7360	3.7361	1.3058	24.26	0.02	0.050			
0.4227	27055.61	3.7350	3.7350	1.3256	24.25	0.01	0.050			
0.4241	27140.47	3.7340	3.7339	1.3477	24.24	0.00	0.050			
0.4254	27227.67	3.7330	3.7330	1.3663	24.24	0.00	0.050			
0.4268	27315.97	3.7320	3.7320	1.3862	24.25	0.01	0.050			
0.4282	27407.21	3.7310	3.7307	1.4028	24.24	0.00	0.050			
0.4297	27499.40	3.7300	3.7298	1.4182	24.25	0.01	0.050			
0.4311	27592.38	3.7290	3.7287	1.4348	24.26	0.02	0.050			
0.4326	27687.60	3.7280	3.7283	1.4479	24.28	0.04	0.050			
0.4341	27783.31	3.7270	3.7273	1.4628	24.27	0.03	0.050			
0.4356	27879.41	3.7260	3.7261	1.4740	24.28	0.04	0.050			
0.4371	27975.82	3.7250	3.7252	1.4830	24.28	0.04	0.050			
0.4386	28072.14	3.7240	3.7241	1.4920	24.28	0.04	0.050			
0.4402	28170.14	3.7230	3.7230	1.4966	24.28	0.04	0.050			
0.4417	28269.57	3.7220	3.7220	1.4935	24.28	0.04	0.050			
0.4432	28365.52	3.7210	3.7209	1.4888	24.28	0.04	0.050			
0.4447	28460.39	3.7200	3.7200	1.4858	24.28	0.04	0.050			
0.4461	28553.11	3.7190	3.7190	1.4808	24.28	0.04	0.050			
0.4475	28643.01	3.7180	3.7180	1.4771	24.28	0.04	0.050			
0.4490	28736.16	3.7170	3.7169	1.4805	24.28	0.04	0.050	0.180	0.267	
0.4505	28829.38	3.7160	3.7161	1.4899	24.27	0.03	0.050			
0.4519	28923.60	3.7150	3.7150	1.5007	24.27	0.03	0.050			
0.4534	29018.98	3.7140	3.7142	1.5117	24.26	0.02	0.050			
0.4549	29113.39	3.7130	3.7129	1.5309	24.26	0.02	0.050			
0.4564	29209.77	3.7120	3.7119	1.5476	24.25	0.01	0.050			
0.4579	29307.08	3.7110	3.7109	1.5652	24.26	0.02	0.050			
0.4595	29407.15	3.7100	3.7098	1.5852	24.25	0.01	0.050			
0.4611	29508.12	3.7090	3.7089	1.6050	24.26	0.02	0.050			
0.4627	29610.76	3.7080	3.7079	1.6263	24.25	0.01	0.050			
0.4643	29715.52	3.7070	3.7069	1.6475	24.24	0.00	0.050			
0.4660	29821.89	3.7060	3.7059	1.6708	24.25	0.01	0.050			
0.4676	29929.23	3.7050	3.7050	1.6977	24.25	0.01	0.050			
0.4694	30040.69	3.7040	3.7043	1.7212	24.25	0.01	0.050	-0.030	0.021	
0.4712	30154.55	3.7030	3.7031	1.7457	24.25	0.01	0.050			
0.4730	30268.95	3.7020	3.7021	1.7673	24.26	0.02	0.050			
0.4747	30382.17	3.7010	3.7010	1.7881	24.26	0.02	0.050			
0.4765	30497.00	3.7000	3.7001	1.8076	24.26	0.02	0.050			
0.4783	30612.69	3.6990	3.6989	1.8268	24.26	0.02	0.050			
0.4802	30731.00	3.6980	3.6980	1.8460	24.27	0.03	0.050			
0.4820	30849.25	3.6970	3.6969	1.8673	24.28	0.04	0.050			
0.4839	30968.69	3.6960	3.6962	1.8874	24.28	0.04	0.050			
0.4858	31089.56	3.6950	3.6951	1.9070	24.29	0.05	0.050			
0.4877	31212.00	3.6940	3.6939	1.9251	24.28	0.04	0.050			
0.4896	31336.86	3.6930	3.6931	1.9414	24.29	0.05	0.050	-0.300	0.157	
0.4915	31455.58	3.6920	3.6919	1.9822	24.28	0.04	0.050			
0.4934	31579.70	3.6910	3.6912	2.0186	24.28	0.04	0.050			
0.4954	31706.04	3.6900	3.6899	2.0600	24.27	0.03	0.050			
0.4974	31836.59	3.6890	3.6891	2.1000	24.28	0.04	0.050			
0.4996	31971.54	3.6880	3.6881	2.1360	24.26	0.02	0.050			
0.5017	32109.55	3.6870	3.6870	2.1739	24.26	0.02	0.050			
0.5039	32250.64	3.6860	3.6860	2.2080	24.26	0.02	0.050			
0.5062	32395.69	3.6850	3.6849	2.2441	24.28	0.04	0.050			
0.5085	32545.51	3.6840	3.6837	2.2763	24.28	0.04	0.050			
0.5109	32698.74	3.6830	3.6826	2.2849	24.30	0.06	0.050			
0.5133	32852.66	3.6820	3.6822	2.2899	24.32	0.08	0.050			
0.5157	33004.54	3.6810	3.6812	2.3041	24.33	0.09	0.050			
0.5180	33154.97	3.6800	3.6803	2.3132	24.35	0.11	0.050			
0.5204	33305.82	3.6790	3.6792	2.3316	24.36	0.12	0.050			
0.5227	33455.38	3.6780	3.6781	2.3464	24.39	0.15	0.050			
0.5251	33605.15	3.6770	3.6772	2.3577	24.40	0.16	0.050			
0.5274	33753.69	3.6760	3.6761	2.3717	24.40	0.16	0.050			
0.5297	33902.00	3.6750	3.6752	2.3873	24.40	0.16	0.050	0.157	0.402	
0.5320	34049.79	3.6740	3.6738	2.4000	24.40	0.16	0.050			
0.5344	34200.64	3.6730	3.6729	2.4157	24.40	0.16	0.050			
0.5366	34340.22	3.6720	3.6719	2.4263	24.39	0.15	0.050			
0.5390	34496.83	3.6710	3.6709	2.4677	24.38	0.14	0.050			
0.5414	34651.39	3.6700	3.6700	2.5114	24.37	0.13	0.050			
0.5439	34810.30	3.6690	3.6690	2.5541	24.35	0.11	0.050			
0.5465	34973.82	3.6680	3.6682	2.5921	24.32	0.08	0.050			
0.5491	35140.40	3.6670	3.6669	2.6383	24.31	0.07	0.050			
0.5517	35311.50	3.6660	3.6661	2.6880	24.28	0.04	0.050			
0.5545	35488.60	3.6650	3.6650	2.7347	24.26	0.02	0.050			
0.5574	35673.64	3.6640	3.6639	2.7806	24.24	-0.00	0.050			
0.5602	35853.50	3.6630	3.6631	2.8116	24.22	-0.02	0.050			
0.5630	36033.09	3.6620	3.6620	2.8517	24.20	-0.04	0.050			
0.5658	36211.64	3.6610	3.6611	2.9082	24.18	-0.06	0.050			
0.5687	36396.74	3.6600	3.6601	2.9708	24.16	-0.08	0.050	0.147	0.346	
0.5716	36582.43	3.6590	3.6589	3.0602	24.15	-0.09	0.050			
0.5746	36777.10	3.6580	3.6581	3.1315	24.15	-0.09	0.050			
0.5778	36979.33	3.6570	3.6570	3.1901	24.17	-0.07	0.050			
0.5811	37187.50	3.6560	3.6559	3.2397	24.20	-0.04	0.050			
0.5844	37398.72	3.6550	3.6548	3.2760	24.23	-0.01	0.050			
0.5877	37613.27	3.6540	3.6537	3.3159	24.28	0.04	0.050			
0.5913	37845.56	3.6530	3.6531	3.3077	24.33	0.09	0.050	0.307	0.593	
0.5948	38068.51	3.6520	3.6523	3.3017	24.36	0.12	0.050			
0.5982	38286.53	3.6510	3.6511	3.2896	24.38	0.14	0.050			
0.6016	38500.23	3.6500	3.6499	3.2875	24.39	0.15	0.050			
0.6048	38708.78	3.6490	3.6491	3.2646	24.40	0.16	0.050			
0.6079	38908.04	3.6480	3.6480	3.2295	24.39	0.15	0.050			
0.6109	39098.81	3.6470	3.6471	3.1966	24.39	0.15	0.050	0.236	0.516	
0.6140	39293.27	3.6460	3.6459	3.1821	24.36	0.12	0.050			
0.6170	39489.42	3.6450	3.6450	3.2138	24.36	0.12	0.050			
0.6202	39695.74	3.6440	3.6438	3.2426	24.35	0.11	0.050			
0.6235	39902.14	3.6430	3.6428	3.2796	24.32	0.08	0.050			
0.6268	40113.66	3.6420	3.6420	3.3036	24.30	0.06	0.050			
0.6301	40323.95	3.6410	3.6411	3.3542	24.28	0.04	0.050	0.373	0.592	
0.6335	40544.79	3.6400	3.6402	3.3917	24.26	0.02	0.050			
0.6371	40773.93	3.6390	3.6390	3.4269	24.24	0.00	0.050			
0.6406	41001.45	3.6380	3.6382	3.4631	24.22	-0.02	0.050			
0.6441	41224.86	3.6370	3.6370	3.4650	24.20	-0.04	0.050			
0.6475	41441.70	3.6360	3.6358	3.4844	24.19	-0.05	0.050			
0.6509	41655.89	3.6350	3.6350	3.5293	24.18	-0.06	0.050	0.226	0.302	
0.6544	41882.59	3.6340	3.6342	3.5443	24.17	-0.07	0.050			
0.6580	42114.14	3.6330	3.6329	3.5527	24.16	-0.08	0.050			
0.6618	42353.68	3.6320	3.6317	3.5060	24.15	-0.09	0.050			
0.6657	42604.95	3.6310	3.6309	3.4279	24.14	-0.10	0.050			
0.6693	42834.38	3.6300	3.6295	3.3257	24.16	-0.08	0.050	0.035	0.306	
0.6727	43052.00	3.6290	3.6294	3.2567	24.18	-0.06	0.050			
0.6758	43250.70	3.6280	3.6283	3.1366	24.20	-0.04	0.050			
0.6788	43440.63	3.6270	3.6273	3.0135	24.22	-0.02	0.050			
0.6816	43619.87	3.6260	3.6263	2.9165	24.24	0.00	0.050			
0.6842	43788.36	3.6250	3.6255	2.7884	24.25	0.01	0.050			
0.6867	43951.22	3.6240	3.6241	2.6800	24.24	0.00	0.050			
0.6892	44107.86	3.6230	3.6227	2.5939	24.22	-0.02	0.050	0.235	0.123	
0.6915	44257.33	3.6220	3.6217	2.5291	24.20	-0.04	0.050			
0.6939	44408.08	3.6210	3.6207	2.4825	24.19	-0.05	0.050			
0.6962	44555.20	3.6200	3.6199	2.4278	24.18	-0.06	0.050			
0.6986	44708.67	3.6190	3.6188	2.4090	24.16	-0.08	0.050			
0.7010	44862.31	3.6180	3.6179	2.3799	24.14	-0.10	0.050			
0.7034	45020.32	3.6170	3.6169	2.3485	24.14	-0.10	0.050			
0.7059	45178.26	3.6160	3.6162	2.3128	24.13	-0.11	0.050			
0.7084	45335.71	3.6150	3.6152	2.2619	24.12	-0.12	0.050			
0.7109	45495.12	3.6140	3.6140	2.2093	24.12	-0.12	0.050	0.157	0.356	
0.7133	45648.25	3.6130	3.6131	2.1467	24.12	-0.12	0.050			
0.7155	45792.07	3.6120	3.6121	2.0548	24.12	-0.12	0.050			
0.7176	45928.23	3.6110	3.6113	1.9596	24.12	-0.12	0.050			
0.7196	46054.28	3.6100	3.6104	1.8586	24.13	-0.11	0.050			
0.7215	46173.61	3.6090	3.6093	1.7520	24.13	-0.11	0.050			
0.7231	46280.45	3.6080	3.6081	1.6517	24.14	-0.10	0.050			
0.7247	46378.48	3.6070	3.6069	1.5578	24.13	-0.11	0.050			
0.7260	46465.97	3.6060	3.6060	1.4689	24.13	-0.11	0.050			
0.7273	46550.20	3.6050	3.6046	1.3807	24.12	-0.12	0.050			
0.7285	46623.87	3.6040	3.6036	1.3105	24.13	-0.11	0.050			
0.7295	46690.64	3.6030	3.6027	1.2481	24.12	-0.12	0.050	0.093	0.434	
0.7306	46755.35	3.6020	3.6020	1.1975	24.12	-0.12	0.050			
0.7316	46820.87	3.6010	3.6008	1.1657	24.12	-0.12	0.050			
0.7326	46884.35	3.6000	3.5999	1.1360	24.12	-0.12	0.050			
0.7336	46950.72	3.5990	3.5989	1.1248	24.12	-0.12	0.050			
0.7346	47015.86	3.5980	3.5981	1.1375	24.12	-0.12	0.050			
0.7357	47083.76	3.5970	3.5970	1.1492	24.11	-0.13	0.050			
0.7367	47151.44	3.5960	3.5962	1.1695	24.11	-0.13	0.050			
0.7379	47223.38	3.5950	3.5951	1.1916	24.10	-0.14	0.050			
0.7390	47297.73	3.5940	3.5941	1.2163	24.11	-0.13	0.050			
0.7402	47375.40	3.5930	3.5930	1.2462	24.11	-0.13	0.050			
0.7415	47454.56	3.5920	3.5918	1.2715	24.12	-0.12	0.050			
0.7428	47538.52	3.5910	3.5909	1.3034	24.12	-0.12	0.050			
0.7441	47624.58	3.5900	3.5896	1.3291	24.13	-0.11	0.050			
0.7455	47714.23	3.5890	3.5888	1.3486	24.13	-0.11	0.050			
0.7470	47805.08	3.5880	3.5882	1.3674	24.13	-0.11	0.050			
0.7484	47898.35	3.5870	3.5870	1.3847	24.14	-0.10	0.050			
0.7499	47993.07	3.5860	3.5860	1.3963	24.13	-0.11	0.050			
0.7514	48087.41	3.5850	3.5851	1.3967	24.14	-0.10	0.050			
0.7528	48181.97	3.5840	3.5840	1.3985	24.14	-0.10	0.050			
0.7543	48277.97	3.5830	3.5831	1.3886	24.14	-0.10	0.050			
0.7558	48372.28	3.5820	3.5821	1.3711	24.14	-0.10	0.050			
0.7572	48463.53	3.5810	3.5811	1.3421	24.14	-0.10	0.050			
0.7586	48553.29	3.5800	3.5799	1.3069	24.14	-0.10	0.050			
0.7599	48636.03	3.5790	3.5790	1.2677	24.14	-0.10	0.050			
0.7612	48715.00	3.5780	3.5780	1.2268	24.13	-0.11	0.050			
0.7624	48792.83	3.5770	3.5771	1.1969	24.13	-0.11	0.050			
0.7636	48867.38	3.5760	3.5761	1.1611	24.13	-0.11	0.050			
0.7647	48939.22	3.5750	3.5752	1.1330	24.13	-0.11	0.050			
0.7657	49007.22	3.5740	3.5741	1.1064	24.11	-0.13	0.050			
0.7668	49073.03	3.5730	3.5732	1.0763	24.11	-0.13	0.050			
0.7678	49137.27	3.5720	3.5720	1.0565	24.10	-0.14	0.050			
0.7687	49199.54	3.5710	3.5708	1.0415	24.10	-0.14	0.050			
0.7697	49262.30	3.5700	3.5698	1.0259	24.10	-0.14	0.050	0.299	0.535	
0.7707	49321.67	3.5690	3.5690	1.0169	24.08	-0.16	0.050			
0.7716	49383.95	3.5680	3.5680	1.0093	24.10	-0.14	0.050			
0.7726	49445.16	3.5670	3.5672	1.0096	24.10	-0.14	0.050			
0.7736	49508.16	3.5660	3.5661	1.0112	24.10	-0.14	0.050			
0.7746	49571.77	3.5650	3.5649	1.0178	24.12	-0.12	0.050			
0.7756	49637.34	3.5640	3.5641	1.0279	24.11	-0.13	0.050			
0.7766	49704.26	3.5630	3.5631	1.0371	24.12	-0.12	0.050			
0.7777	49772.09	3.5620	3.5619	1.0454	24.14	-0.10	0.050			
0.7788	49840.53	3.5610	3.5612	1.0552	24.14	-0.10	0.050			
0.7798	49907.86	3.5600	3.5598	1.0645	24.15	-0.09	0.050			
0.7809	49976.32	3.5590	3.5591	1.0682	24.16	-0.08	0.050			
0.7820	50045.23	3.5580	3.5577	1.0736	24.18	-0.06	0.050			
0.7830	50114.36	3.5570	3.5568	1.0778	24.18	-0.06	0.050			
0.7842	50185.84	3.5560	3.5559	1.0794	24.19	-0.05	0.050			
0.7853	50256.08	3.5550	3.5552	1.0825	24.21	-0.03	0.050			
0.7864	50326.77	3.5540	3.5539	1.0817	24.22	-0.02	0.050			
0.7875	50397.24	3.5530	3.5529	1.0794	24.22	-0.02	0.050			
0.7886	50467.27	3.5520	3.5521	1.0790	24.22	-0.02	0.050			
0.7896	50536.77	3.5510	3.5509	1.0742	24.23	-0.01	0.050	0.387	0.551	
0.7907	50606.18	3.5500	3.5502	1.0707	24.23	-0.01	0.050			
0.7918	50674.40	3.5490	3.5490	1.0661	24.24	0.00	0.050			
0.7928	50742.25	3.5480	3.5481	1.0630	24.24	0.00	0.050			
0.7939	50810.57	3.5470	3.5471	1.0588	24.24	0.00	0.050			
0.7950	50878.25	3.5460	3.5461	1.0531	24.24	0.00	0.050			
0.7960	50945.50	3.5450	3.5450	1.0460	24.24	0.00	0.050			
0.7971	51012.33	3.5440	3.5439	1.0406	24.23	-0.01	0.050			
0.7981	51078.28	3.5430	3.5428	1.0368	24.23	-0.01	0.050			
0.7991	51142.37	3.5420	3.5421	1.0319	24.22	-0.02	0.050			
0.8001	51207.94	3.5410	3.5409	1.0309	24.21	-0.03	0.050			
0.8011	51272.16	3.5400	3.5401	1.0283	24.20	-0.04	0.050			
0.8022	51338.10	3.5390	3.5390	1.0299	24.21	-0.03	0.050			
0.8032	51403.01	3.5380	3.5381	1.0324	24.20	-0.04	0.050			
0.8042	51468.44	3.5370	3.5371	1.0345	24.20	-0.04	0.050			
0.8052	51535.00	3.5360	3.5359	1.0375	24.18	-0.06	0.050			
0.8063	51602.37	3.5350	3.5349	1.0390	24.18	-0.06	0.050			
0.8073	51668.44	3.5340	3.5338	1.0385	24.18	-0.06	0.050			
0.8084	51734.68	3.5330	3.5330	1.0414	24.18	-0.06	0.050			
0.8094	51800.00	3.5320	3.5320	1.0452	24.17	-0.07	0.050	0.122	0.366	
0.8104	51865.43	3.5310	3.5310	1.0555	24.16	-0.08	0.050			
0.8114	51931.53	3.5300	3.5301	1.0635	24.16	-0.08	0.050			
0.8125	51999.49	3.5290	3.5290	1.0728	24.16	-0.08	0.050			
0.8136	52068.17	3.5280	3.5282	1.0803	24.15	-0.09	0.050			
0.8146	52132.99	3.5270	3.5271	1.1066	24.14	-0.10	0.050			
0.8157	52202.52	3.5260	3.5260	1.1278	24.15	-0.09	0.050			
0.8167	52271.49	3.5250	3.5248	1.1509	24.15	-0.09	0.050			
0.8179	52344.82	3.5240	3.5240	1.1744	24.16	-0.08	0.050			
0.8190	52417.98	3.5230	3.5229	1.1984	24.16	-0.08	0.050			
0.8202	52494.64	3.5220	3.5220	1.2219	24.15	-0.09	0.050			
0.8215	52573.90	3.5210	3.5211	1.2501	24.16	-0.08	0.050			
0.8227	52654.70	3.5200	3.5199	1.2787	24.16	-0.08	0.050			
0.8240	52738.04	3.5190	3.5187	1.3075	24.16	-0.08	0.050			
0.8254	52823.25	3.5180	3.5177	1.3368	24.18	-0.06	0.050			
0.8267	52910.63	3.5170	3.5172	1.3688	24.18	-0.06	0.050			
0.8281	52999.97	3.5160	3.5159	1.4035	24.18	-0.06	0.050			
0.8296	53093.48	3.5150	3.5150	1.4278	24.18	-0.06	0.050	0.355	0.615	
0.8311	53189.06	3.5140	3.5139	1.4461	24.18	-0.06	0.050			
0.8326	53283.45	3.5130	3.5130	1.4671	24.18	-0.06	0.050			
0.8340	53377.98	3.5120	3.5119	1.4893	24.18	-0.06	0.050			
0.8355	53472.31	3.5110	3.5108	1.5162	24.20	-0.04	0.050			
0.8370	53567.20	3.5100	3.5101	1.5525	24.18	-0.06	0.050			
0.8385	53664.18	3.5090	3.5091	1.5850	24.18	-0.06	0.050			
0.8400	53763.17	3.5080	3.5081	1.6219	24.18	-0.06	0.050			
0.8416	53860.14	3.5070	3.5073	1.6557	24.18	-0.06	0.050			
0.8432	53965.41	3.5060	3.5064	1.7008	24.17	-0.07	0.050			
0.8449	54071.02	3.5050	3.5045	1.7479	24.16	-0.08	0.050			
0.8466	54183.20	3.5040	3.5039	1.8046	24.17	-0.07	0.050			
0.8484	54299.26	3.5030	3.5028	1.8530	24.17	-0.07	0.050			
0.8503	54418.35	3.5020	3.5020	1.9101	24.16	-0.08	0.050	0.235	0.520	
0.8522	54542.45	3.5010	3.5010	1.9644	24.16	-0.08	0.050			
0.8542	54669.85	3.5000	3.5002	2.0200	24.16	-0.08	0.050			
0.8563	54801.98	3.4990	3.4989	2.0798	24.14	-0.10	0.050			
0.8584	54938.82	3.4980	3.4981	2.1362	24.14	-0.10	0.050			
0.8606	55080.64	3.4970	3.4970	2.1916	24.14	-0.10	0.050			
0.8630	55229.23	3.4960	3.4959	2.2452	24.11	-0.13	0.050			
0.8653	55378.63	3.4950	3.4951	2.2846	24.10	-0.14	0.050			
0.8677	55531.69	3.4940	3.4939	2.3160	24.08	-0.16	0.050			
0.8701	55685.37	3.4930	3.4928	2.3424	24.08	-0.16	0.050	0.351	0.498	
0.8725	55840.61	3.4920	3.4920	2.3523	24.08	-0.16	0.050			
0.8750	55998.02	3.4910	3.4909	2.3541	24.07	-0.17	0.050			
0.8775	56158.55	3.4900	3.4900	2.3355	24.07	-0.17	0.050			
0.8800	56317.05	3.4890	3.4888	2.3062	24.08	-0.16	0.050			
0.8824	56472.78	3.4880	3.4878	2.2593	24.08	-0.16	0.050			
0.8848	56627.57	3.4870	3.4870	2.2041	24.08	-0.16	0.050			
0.8871	56774.63	3.4860	3.4859	2.1362	24.10	-0.14	0.050			
0.8893	56917.51	3.4850	3.4850	2.0511	24.09	-0.15	0.050	0.255	0.628	
0.8915	57057.08	3.4840	3.4842	1.9528	24.08	-0.16	0.050			
0.8935	57186.92	3.4830	3.4833	1.8409	24.06	-0.18	0.050			
0.8954	57306.57	3.4820	3.4823	1.7199	24.07	-0.17	0.050			
0.8971	57417.58	3.4810	3.4811	1.5983	24.08	-0.16	0.050			
0.8987	57518.03	3.4800	3.4801	1.4781	24.09	-0.15	0.050			
0.9002	57610.48	3.4790	3.4789	1.3435	24.08	-0.16	0.050			
0.9014	57691.14	3.4780	3.4777	1.2299	24.10	-0.14	0.050			
0.9025	57760.78	3.4770	3.4773	1.1229	24.10	-0.14	0.050			
0.9035	57824.08	3.4760	3.4760	0.9959	24.11	-0.13	0.050			
0.9043	57872.42	3.4750	3.4748	0.9030	24.11	-0.13	0.050			
0.9049	57913.35	3.4740	3.4735	0.8203	24.11	-0.13	0.050			
0.9055	57954.92	3.4730	3.4725	0.7278	24.12	-0.12	0.050			
0.9060	57987.04	3.4720	3.4716	0.6687	24.12	-0.12	0.050			
0.9066	58022.91	3.4710	3.4703	0.6034	24.12	-0.12	0.050			
0.9070	58047.12	3.4700	3.4697	0.5571	24.12	-0.12	0.050			
0.9074	58075.44	3.4690	3.4687	0.5085	24.12	-0.12	0.050			
0.9078	58098.65	3.4680	3.4677	0.4769	24.13	-0.11	0.050			
0.9082	58123.57	3.4670	3.4668	0.4547	24.13	-0.11	0.050			
0.9086	58147.57	3.4660	3.4660	0.4263	24.14	-0.10	0.050			
0.9089	58172.19	3.4650	3.4651	0.4133	24.14	-0.10	0.050			
0.9093	58197.31	3.4640	3.4640	0.3989	24.14	-0.10	0.050			
0.9097	58220.77	3.4630	3.4629	0.3880	24.14	-0.10	0.050	0.229	0.412	
0.9101	58244.08	3.4620	3.4621	0.3756	24.15	-0.09	0.050			
0.9104	58266.87	3.4610	3.4609	0.3664	24.16	-0.08	0.050			
0.9108	58289.48	3.4600	3.4599	0.3572	24.16	-0.08	0.050			
0.9111	58311.72	3.4590	3.4588	0.3513	24.16	-0.08	0.050			
0.9115	58333.35	3.4580	3.4578	0.3434	24.16	-0.08	0.050			
0.9118	58354.49	3.4570	3.4570	0.3382	24.16	-0.08	0.050			
0.9121	58375.96	3.4560	3.4562	0.3330	24.16	-0.08	0.050			
0.9124	58396.14	3.4550	3.4552	0.3275	24.16	-0.08	0.050			
0.9128	58416.69	3.4540	3.4541	0.3226	24.16	-0.08	0.050			
0.9131	58437.21	3.4530	3.4531	0.3186	24.16	-0.08	0.050			
0.9134	58457.43	3.4520	3.4521	0.3150	24.17	-0.07	0.050			
0.9137	58477.47	3.4510	3.4510	0.3111	24.18	-0.06	0.050			
0.9140	58497.33	3.4500	3.4499	0.3079	24.18	-0.06	0.050			
0.9143	58516.92	3.4490	3.4488	0.3040	24.19	-0.05	0.050			
0.9146	58535.80	3.4480	3.4478	0.3004	24.19	-0.05	0.050			
0.9149	58554.36	3.4470	3.4469	0.2956	24.19	-0.05	0.050			
0.9152	58573.00	3.4460	3.4461	0.2932	24.20	-0.04	0.050			
0.9155	58591.22	3.4450	3.4451	0.2894	24.20	-0.04	0.050			
0.9158	58609.67	3.4440	3.4441	0.2872	24.20	-0.04	0.050			
0.9161	58627.94	3.4430	3.4431	0.2856	24.20	-0.04	0.050			
0.9163	58646.15	3.4420	3.4421	0.2835	24.20	-0.04	0.050			
0.9166	58664.08	3.4410	3.4411	0.2823	24.20	-0.04	0.050			
0.9169	58682.08	3.4400	3.4399	0.2803	24.21	-0.03	0.050			
0.9172	58699.85	3.4390	3.4390	0.2787	24.21	-0.03	0.050			
0.9175	58717.63	3.4380	3.4379	0.2769	24.21	-0.03	0.050			
0.9177	58734.89	3.4370	3.4370	0.2743	24.22	-0.02	0.050			
0.9180	58752.38	3.4360	3.4360	0.2729	24.22	-0.02	0.050			
0.9183	58769.47	3.4350	3.4350	0.2708	24.22	-0.02	0.050			
0.9185	58786.92	3.4340	3.4339	0.2694	24.22	-0.02	0.050			
0.9188	58804.12	3.4330	3.4330	0.2682	24.22	-0.02	0.050			
0.9191	58821.18	3.4320	3.4321	0.2669	24.22	-0.02	0.050			
0.9193	58838.26	3.4310	3.4310	0.2656	24.22	-0.02	0.050			
0.9196	58855.43	3.4300	3.4300	0.2648	24.22	-0.02	0.050			
0.9199	58872.47	3.4290	3.4291	0.2630	24.22	-0.02	0.050			
0.9201	58889.44	3.4280	3.4281	0.2619	24.23	-0.01	0.050			
0.9204	58906.15	3.4270	3.4271	0.2602	24.23	-0.01	0.050			
0.9207	58922.81	3.4260	3.4259	0.2588	24.23	-0.01	0.050			
0.9209	58939.32	3.4250	3.4250	0.2571	24.22	-0.02	0.050			
0.9212	58955.63	3.4240	3.4240	0.2556	24.22	-0.02	0.050			
0.9214	58971.91	3.4230	3.4230	0.2539	24.22	-0.02	0.050			
0.9217	58988.11	3.4220	3.4220	0.2522	24.22	-0.02	0.050			
0.9219	59004.10	3.4210	3.4210	0.2506	24.23	-0.01	0.050			
0.9222	59020.09	3.4200	3.4201	0.2491	24.23	-0.01	0.050			
0.9224	59035.86	3.4190	3.4190	0.2474	24.23	-0.01	0.050			
0.9227	59051.95	3.4180	3.4179	0.2450	24.24	-0.00	0.050			
0.9229	59067.57	3.4170	3.4169	0.2432	24.24	-0.00	0.050			
0.9232	59083.24	3.4160	3.4161	0.2417	24.24	-0.00	0.050			
0.9234	59099.13	3.4150	3.4149	0.2379	24.23	-0.01	0.050			
0.9237	59114.51	3.4140	3.4139	0.2359	24.23	-0.01	0.050			
0.9239	59129.52	3.4130	3.4130	0.2332	24.23	-0.01	0.050			
0.9241	59144.08	3.4120	3.4120	0.2318	24.23	-0.01	0.050			
0.9244	59159.01	3.4110	3.4111	0.2297	24.22	-0.02	0.050			
0.9246	59172.97	3.4100	3.4101	0.2293	24.22	-0.02	0.050			
0.9248	59187.38	3.4090	3.4092	0.2270	24.22	-0.02	0.050			
0.9250	59201.85	3.4080	3.4081	0.2254	24.22	-0.02	0.050			
0.9252	59215.62	3.4070	3.4072	0.2260	24.22	-0.02	0.050			
0.9255	59229.66	3.4060	3.4062	0.2244	24.22	-0.02	0.050			
0.9257	59244.00	3.4050	3.4048	0.2237	24.22	-0.02	0.050			
0.9259	59257.84	3.4040	3.4037	0.2215	24.23	-0.01	0.050			
0.9261	59272.02	3.4030	3.4028	0.2214	24.23	-0.01	0.050			
0.9263	59286.18	3.4020	3.4018	0.2212	24.23	-0.01	0.050			
0.9266	59300.27	3.4010	3.4008	0.2188	24.23	-0.01	0.050			
0.9268	59314.27	3.4000	3.3999	0.2186	24.22	-0.02	0.050			
0.9270	59328.25	3.3990	3.3990	0.2184	24.22	-0.02	0.050			
0.9272	59342.29	3.3980	3.3980	0.2175	24.22	-0.02	0.050			
0.9274	59356.20	3.3970	3.3971	0.2173	24.22	-0.02	0.050			
0.9277	59370.10	3.3960	3.3962	0.2170	24.22	-0.02	0.050			
0.9279	59384.05	3.3950	3.3952	0.2190	24.22	-0.02	0.050			
0.9281	59398.05	3.3940	3.3942	0.2188	24.22	-0.02	0.050			
0.9283	59412.36	3.3930	3.3931	0.2176	24.22	-0.02	0.050			
0.9285	59426.92	3.3920	3.3920	0.2184	24.23	-0.01	0.050			
0.9288	59440.87	3.3910	3.3909	0.2174	24.23	-0.01	0.050			
0.9290	59454.40	3.3900	3.3900	0.2158	24.23	-0.01	0.050			
0.9292	59468.43	3.3890	3.3888	0.2144	24.23	-0.01	0.050			
0.9294	59482.13	3.3880	3.3877	0.2135	24.24	-0.00	0.050			
0.9296	59495.44	3.3870	3.3870	0.2120	24.24	-0.00	0.050			
0.9298	59509.17	3.3860	3.3859	0.2108	24.24	0.00	0.050	0.024	0.321	
0.9300	59522.64	3.3850	3.3851	0.2100	24.24	0.00	0.050			
0.9302	59535.98	3.3840	3.3843	0.2090	24.24	0.00	0.050			
0.9305	59549.28	3.3830	3.3833	0.2085	24.24	0.00	0.050			
0.9307	59562.60	3.3820	3.3823	0.2077	24.24	0.00	0.050			
0.9309	59576.46	3.3810	3.3811	0.2079	24.24	0.00	0.050			
0.9311	59589.74	3.3800	3.3799	0.2066	24.24	0.00	0.050			
0.9313	59602.92	3.3790	3.3790	0.2054	24.24	0.00	0.050			
0.9315	59616.36	3.3780	3.3780	0.2046	24.24	0.00	0.050			
0.9317	59628.94	3.3770	3.3769	0.2044	24.24	0.00	0.050			
0.9319	59641.99	3.3760	3.3759	0.2034	24.24	0.00	0.050			
0.9321	59654.51	3.3750	3.3750	0.2016	24.24	0.00	0.050			
0.9323	59667.52	3.3740	3.3739	0.2006	24.24	-0.00	0.050			
0.9325	59679.77	3.3730	3.3730	0.1982	24.24	-0.00	0.050			
0.9327	59692.44	3.3720	3.3721	0.1979	24.23	-0.01	0.050			
0.9329	59705.11	3.3710	3.3711	0.1977	24.23	-0.01	0.050			
0.9331	59717.75	3.3700	3.3701	0.1975	24.23	-0.01	0.050			
0.9333	59730.76	3.3690	3.3690	0.1979	24.23	-0.01	0.050			
0.9335	59743.41	3.3680	3.3680	0.1974	24.24	-0.00	0.050			
0.9337	59756.01	3.3670	3.3669	0.1970	24.24	-0.00	0.050			
0.9339	59768.66	3.3660	3.3658	0.1966	24.24	-0.00	0.050			
0.9341	59781.22	3.3650	3.3650	0.1960	24.24	-0.00	0.050			
0.9343	59794.08	3.3640	3.3641	0.1943	24.23	-0.01	0.050			
0.9345	59806.60	3.3630	3.3631	0.1937	24.23	-0.01	0.050			
0.9347	59818.96	3.3620	3.3620	0.1927	24.23	-0.01	0.050			
0.9349	59831.26	3.3610	3.3609	0.1917	24.23	-0.01	0.050			
0.9351	59843.27	3.3600	3.3598	0.1915	24.23	-0.01	0.050			
0.9352	59855.50	3.3590	3.3591	0.1907	24.23	-0.01	0.050			
0.9354	59867.69	3.3580	3.3580	0.1900	24.23	-0.01	0.050			
0.9356	59880.07	3.3570	3.3570	0.1896	24.23	-0.01	0.050			
0.9358	59892.17	3.3560	3.3561	0.1887	24.23	-0.01	0.050			
0.9360	59904.22	3.3550	3.3551	0.1878	24.23	-0.01	0.050			
0.9362	59916.26	3.3540	3.3541	0.1859	24.23	-0.01	0.050			
0.9364	59928.13	3.3530	3.3530	0.1849	24.23	-0.01	0.050			
0.9366	59939.93	3.3520	3.3519	0.1840	24.23	-0.01	0.050			
0.9367	59951.67	3.3510	3.3509	0.1830	24.22	-0.02	0.050			
0.9369	59963.46	3.3500	3.3497	0.1830	24.22	-0.02	0.050			
0.9371	59975.14	3.3490	3.3490	0.1820	24.22	-0.02	0.050			
0.9373	59986.75	3.3480	3.3481	0.1810	24.22	-0.02	0.050			
0.9375	59997.94	3.3470	3.3472	0.1797	24.22	-0.02	0.050			
0.9376	60009.42	3.3460	3.3461	0.1790	24.23	-0.01	0.050			
0.9378	60020.85	3.3450	3.3451	0.1782	24.23	-0.01	0.050			
0.9380	60032.17	3.3440	3.3440	0.1774	24.23	-0.01	0.050			
0.9382	60043.66	3.3430	3.3430	0.1764	24.23	-0.01	0.050			
0.9384	60054.92	3.3420	3.3419	0.1756	24.23	-0.01	0.050			
0.9385	60066.14	3.3410	3.3408	0.1748	24.23	-0.01	0.050			
0.9387	60077.62	3.3400	3.3399	0.1744	24.23	-0.01	0.050			
0.9389	60088.46	3.3390	3.3390	0.1742	24.23	-0.01	0.050			
0.9391	60099.59	3.3380	3.3379	0.1734	24.23	-0.01	0.050			
0.9392	60110.18	3.3370	3.3371	0.1718	24.23	-0.01	0.050			
0.9394	60121.16	3.3360	3.3361	0.1714	24.23	-0.01	0.050			
0.9396	60132.09	3.3350	3.3351	0.1711	24.23	-0.01	0.050			
0.9397	60143.05	3.3340	3.3341	0.1708	24.23	-0.01	0.050			
0.9399	60153.96	3.3330	3.3331	0.1704	24.23	-0.01	0.050			
0.9401	60165.00	3.3320	3.3319	0.1696	24.23	-0.01	0.050			
0.9402	60175.84	3.3310	3.3310	0.1691	24.23	-0.01	0.050			
0.9404	60186.83	3.3300	3.3299	0.1690	24.23	-0.01	0.050			
0.9406	60197.63	3.3290	3.3289	0.1683	24.23	-0.01	0.050			
0.9408	60208.50	3.3280	3.3279	0.1673	24.23	-0.01	0.050			
0.9409	60219.07	3.3270	3.3269	0.1662	24.22	-0.02	0.050			
0.9411	60229.68	3.3260	3.3259	0.1656	24.22	-0.02	0.050			
0.9413	60240.26	3.3250	3.3251	0.1649	24.22	-0.02	0.050			
0.9414	60250.89	3.3240	3.3242	0.1640	24.22	-0.02	0.050			
0.9416	60261.53	3.3230	3.3231	0.1637	24.22	-0.02	0.050			
0.9417	60271.97	3.3220	3.3220	0.1628	24.22	-0.02	0.050			
0.9419	60282.36	3.3210	3.3210	0.1619	24.22	-0.02	0.050			
0.9421	60292.47	3.3200	3.3201	0.1618	24.22	-0.02	0.050			
0.9422	60302.94	3.3190	3.3191	0.1615	24.22	-0.02	0.050			
0.9424	60313.25	3.3180	3.3180	0.1607	24.22	-0.02	0.050			
0.9426	60323.51	3.3170	3.3170	0.1599	24.22	-0.02	0.050			
0.9427	60333.58	3.3160	3.3161	0.1596	24.21	-0.03	0.050			
0.9429	60343.47	3.3150	3.3151	0.1583	24.21	-0.03	0.050			
0.9430	60353.59	3.3140	3.3139	0.1579	24.21	-0.03	0.050			
0.9432	60363.68	3.3130	3.3129	0.1575	24.21	-0.03	0.050			
0.9433	60373.88	3.3120	3.3120	0.1561	24.21	-0.03	0.050			
0.9435	60383.85	3.3110	3.3109	0.1556	24.22	-0.02	0.050			
0.9437	60393.79	3.3100	3.3098	0.1550	24.22	-0.02	0.050			
0.9438	60403.70	3.3090	3.3089	0.1545	24.22	-0.02	0.050			
0.9440	60413.71	3.3080	3.3080	0.1542	24.22	-0.02	0.050			
0.9441	60423.78	3.3070	3.3070	0.1529	24.22	-0.02	0.050			
0.9443	60433.54	3.3060	3.3061	0.1520	24.22	-0.02	0.050			
0.9444	60443.24	3.3050	3.3051	0.1512	24.22	-0.02	0.050			
0.9446	60453.26	3.3040	3.3040	0.1509	24.22	-0.02	0.050			
0.9447	60462.41	3.3030	3.3031	0.1508	24.22	-0.02	0.050			
0.9449	60472.04	3.3020	3.3020	0.1501	24.22	-0.02	0.050			
0.9450	60481.62	3.3010	3.3012	0.1493	24.22	-0.02	0.050			
0.9452	60491.16	3.3000	3.3001	0.1486	24.22	-0.02	0.050			
0.9453	60500.37	3.2990	3.2990	0.1484	24.22	-0.02	0.050			
0.9455	60509.85	3.2980	3.2980	0.1479	24.22	-0.02	0.050			
0.9456	60519.30	3.2970	3.2969	0.1474	24.22	-0.02	0.050			
0.9458	60528.21	3.2960	3.2960	0.1460	24.22	-0.02	0.050			
0.9459	60537.55	3.2950	3.2949	0.1459	24.22	-0.02	0.050			
0.9460	60547.18	3.2940	3.2939	0.1449	24.22	-0.02	0.050			
0.9462	60556.44	3.2930	3.2928	0.1445	24.22	-0.02	0.050			
0.9463	60565.58	3.2920	3.2918	0.1439	24.22	-0.02	0.050			
0.9465	60574.78	3.2910	3.2909	0.1436	24.22	-0.02	0.050			
0.9466	60584.11	3.2900	3.2900	0.1429	24.22	-0.02	0.050			
0.9468	60593.24	3.2890	3.2891	0.1424	24.21	-0.03	0.050			
0.9469	60602.35	3.2880	3.2882	0.1420	24.21	-0.03	0.050			
0.9471	60611.74	3.2870	3.2871	0.1420	24.21	-0.03	0.050			
0.9472	60620.81	3.2860	3.2861	0.1414	24.21	-0.03	0.050			
0.9473	60629.75	3.2850	3.2851	0.1409	24.21	-0.03	0.050			
0.9475	60638.75	3.2840	3.2841	0.1403	24.21	-0.03	0.050			
0.9476	60648.00	3.2830	3.2831	0.1402	24.22	-0.02	0.050			
0.9478	60656.95	3.2820	3.2820	0.1394	24.22	-0.02	0.050			
0.9479	60665.63	3.2810	3.2810	0.1391	24.22	-0.02	0.050			
0.9480	60674.51	3.2800	3.2799	0.1384	24.22	-0.02	0.050			
0.9482	60683.00	3.2790	3.2788	0.1370	24.22	-0.02	0.050			
0.9483	60691.76	3.2780	3.2779	0.1366	24.22	-0.02	0.050			
0.9484	60700.49	3.2770	3.2769	0.1362	24.21	-0.03	0.050			
0.9486	60709.30	3.2760	3.2758	0.1355	24.21	-0.03	0.050			
0.9487	60717.96	3.2750	3.2749	0.1351	24.21	-0.03	0.050			
0.9489	60726.52	3.2740	3.2742	0.1345	24.21	-0.03	0.050			
0.9490	60735.11	3.2730	3.2733	0.1340	24.21	-0.03	0.050			
0.9491	60743.67	3.2720	3.2721	0.1336	24.21	-0.03	0.050			
0.9493	60752.12	3.2710	3.2708	0.1335	24.20	-0.04	0.050			
0.9494	60760.77	3.2700	3.2699	0.1335	24.20	-0.04	0.050			
0.9495	60769.30	3.2690	3.2689	0.1331	24.20	-0.04	0.050			
0.9497	60777.80	3.2680	3.2677	0.1327	24.20	-0.04	0.050			
0.9498	60786.28	3.2670	3.2622	0.1322	24.20	-0.04	0.050			
0.9499	60794.73	3.2660	3.2659	0.1318	24.20	-0.04	0.050	0.170	0.559	
0.9500	60803.09	3.2650	3.2649	0.1312	24.20	-0.04	0.050			
0.9502	60811.48	3.2640	3.2639	0.1309	24.20	-0.04	0.050			
0.9503	60819.85	3.2630	3.2628	0.1305	24.20	-0.04	0.050			
0.9504	60828.18	3.2620	3.2618	0.1301	24.20	-0.04	0.050			
0.9506	60836.60	3.2610	3.2609	0.1293	24.20	-0.04	0.050			
0.9507	60844.86	3.2600	3.2601	0.1288	24.20	-0.04	0.050			
0.9508	60853.09	3.2590	3.2590	0.1283	24.20	-0.04	0.050			
0.9510	60861.29	3.2580	3.2580	0.1279	24.20	-0.04	0.050			
0.9511	60869.45	3.2570	3.2571	0.1274	24.20	-0.04	0.050			
0.9512	60877.73	3.2560	3.2561	0.1269	24.20	-0.04	0.050			
0.9513	60885.83	3.2550	3.2551	0.1264	24.20	-0.04	0.050			
0.9515	60893.90	3.2540	3.2541	0.1258	24.20	-0.04	0.050			
0.9516	60901.93	3.2530	3.2530	0.1252	24.20	-0.04	0.050			
0.9517	60909.93	3.2520	3.2520	0.1246	24.20	-0.04	0.050			
0.9518	60917.92	3.2510	3.2510	0.1246	24.20	-0.04	0.050			
0.9520	60925.87	3.2500	3.2500	0.1240	24.20	-0.04	0.050			
0.9521	60933.79	3.2490	3.2489	0.1234	24.20	-0.04	0.050			
0.9522	60941.66	3.2480	3.2479	0.1228	24.20	-0.04	0.050			
0.9523	60949.50	3.2470	3.2470	0.1222	24.20	-0.04	0.050			
0.9525	60957.02	3.2460	3.2460	0.1213	24.20	-0.04	0.050			
0.9526	60964.76	3.2450	3.2450	0.1209	24.20	-0.04	0.050			
0.9527	60972.49	3.2440	3.2440	0.1206	24.20	-0.04	0.050			
0.9528	60980.19	3.2430	3.2430	0.1202	24.20	-0.04	0.050			
0.9529	60987.87	3.2420	3.2420	0.1198	24.20	-0.04	0.050			
0.9531	60995.43	3.2410	3.2410	0.1193	24.20	-0.04	0.050			
0.9532	61003.18	3.2400	3.2400	0.1187	24.20	-0.04	0.050			
0.9533	61010.76	3.2390	3.2390	0.1182	24.20	-0.04	0.050			
0.9534	61018.31	3.2380	3.2380	0.1178	24.20	-0.04	0.050			
0.9535	61025.84	3.2370	3.2370	0.1173	24.20	-0.04	0.050			
0.9536	61033.43	3.2360	3.2360	0.1170	24.20	-0.04	0.050			
0.9538	61040.83	3.2350	3.2350	0.1166	24.20	-0.04	0.050			
0.9539	61048.28	3.2340	3.2340	0.1162	24.20	-0.04	0.050			
0.9540	61055.70	3.2330	3.2330	0.1157	24.20	-0.04	0.050			
0.9541	61063.09	3.2320	3.2321	0.1153	24.20	-0.04	0.050			
0.9542	61070.49	3.2310	3.2311	0.1149	24.20	-0.04	0.050			
0.9543	61077.82	3.2300	3.2300	0.1144	24.20	-0.04	0.050			
0.9545	61085.07	3.2290	3.2289	0.1141	24.20	-0.04	0.050			
0.9546	61092.36	3.2280	3.2279	0.1137	24.20	-0.04	0.050			
0.9547	61099.62	3.2270	3.2270	0.1133	24.20	-0.04	0.050			
0.9548	61106.85	3.2260	3.2260	0.1128	24.20	-0.04	0.050			
0.9549	61113.95	3.2250	3.2250	0.1123	24.20	-0.04	0.050			
0.9550	61121.13	3.2240	3.2240	0.1119	24.20	-0.04	0.050			
0.9551	61128.29	3.2230	3.2230	0.1115	24.20	-0.04	0.050			
0.9552	61135.42	3.2220	3.2221	0.1112	24.20	-0.04	0.050			
0.9554	61142.53	3.2210	3.2210	0.1108	24.20	-0.04	0.050			
0.9555	61149.55	3.2200	3.2199	0.1104	24.20	-0.04	0.050			
0.9556	61156.60	3.2190	3.2190	0.1100	24.20	-0.04	0.050			
0.9557	61163.67	3.2180	3.2181	0.1096	24.20	-0.04	0.050			
0.9558	61170.68	3.2170	3.2170	0.1093	24.20	-0.04	0.050			
0.9559	61177.66	3.2160	3.2158	0.1089	24.19	-0.05	0.050			
0.9560	61184.71	3.2150	3.2150	0.1087	24.19	-0.05	0.050			
0.9561	61191.65	3.2140	3.2141	0.1083	24.19	-0.05	0.050			
0.9562	61198.57	3.2130	3.2131	0.1079	24.19	-0.05	0.050			
0.9563	61205.49	3.2120	3.2121	0.1074	24.19	-0.05	0.050			
0.9564	61212.35	3.2110	3.2110	0.1069	24.19	-0.05	0.050			
0.9565	61219.18	3.2100	3.2100	0.1065	24.19	-0.05	0.050			
0.9567	61225.99	3.2090	3.2090	0.1061	24.19	-0.05	0.050			
0.9568	61232.76	3.2080	3.2080	0.1056	24.20	-0.04	0.050			
0.9569	61239.51	3.2070	3.2070	0.1052	24.20	-0.04	0.050			
0.9570	61246.23	3.2060	3.2060	0.1047	24.20	-0.04	0.050			
0.9571	61252.88	3.2050	3.2049	0.1044	24.20	-0.04	0.050			
0.9572	61259.55	3.2040	3.2041	0.1040	24.20	-0.04	0.050			
0.9573	61266.18	3.2030	3.2031	0.1035	24.20	-0.04	0.050			
0.9574	61272.79	3.2020	3.2021	0.1031	24.20	-0.04	0.050			
0.9575	61279.38	3.2010	3.2011	0.1027	24.20	-0.04	0.050			
0.9576	61285.94	3.2000	3.2001	0.1023	24.20	-0.04	0.050			
0.9577	61292.43	3.1990	3.1991	0.1019	24.20	-0.04	0.050			
0.9578	61298.91	3.1980	3.1981	0.1015	24.20	-0.04	0.050			
0.9579	61305.39	3.1970	3.1970	0.1011	24.20	-0.04	0.050			
0.9580	61311.85	3.1960	3.1959	0.1007	24.20	-0.04	0.050			
0.9581	61318.29	3.1950	3.1950	0.1003	24.20	-0.04	0.050			
0.9582	61324.70	3.1940	3.1940	0.1000	24.20	-0.04	0.050			
0.9583	61331.08	3.1930	3.1930	0.0996	24.20	-0.04	0.050			
0.9584	61337.47	3.1920	3.1920	0.0990	24.20	-0.04	0.050			
0.9585	61343.79	3.1910	3.1910	0.0986	24.20	-0.04	0.050			
0.9586	61350.09	3.1900	3.1900	0.0982	24.20	-0.04	0.050			
0.9587	61356.37	3.1890	3.1890	0.0979	24.20	-0.04	0.050			
0.9588	61362.62	3.1880	3.1880	0.0975	24.20	-0.04	0.050			
0.9589	61368.84	3.1870	3.1870	0.0971	24.20	-0.04	0.050			
0.9590	61375.03	3.1860	3.1860	0.0967	24.20	-0.04	0.050			
0.9591	61381.24	3.1850	3.1850	0.0964	24.20	-0.04	0.050			
0.9592	61387.40	3.1840	3.1840	0.0960	24.20	-0.04	0.050			
0.9593	61393.54	3.1830	3.1830	0.0956	24.20	-0.04	0.050			
0.9594	61399.64	3.1820	3.1820	0.0952	24.20	-0.04	0.050			
0.9595	61405.72	3.1810	3.1810	0.0948	24.20	-0.04	0.050			
0.9596	61411.78	3.1800	3.1799	0.0944	24.20	-0.04	0.050			
0.9597	61417.67	3.1790	3.1788	0.0941	24.20	-0.04	0.050			
0.9597	61423.68	3.1780	3.1780	0.0938	24.20	-0.04	0.050			
0.9598	61429.67	3.1770	3.1771	0.0935	24.20	-0.04	0.050			
0.9599	61435.64	3.1760	3.1761	0.0931	24.20	-0.04	0.050			
0.9600	61441.59	3.1750	3.1751	0.0928	24.20	-0.04	0.050			
0.9601	61447.53	3.1740	3.1741	0.0925	24.20	-0.04	0.050			
0.9602	61453.44	3.1730	3.1731	0.0922	24.20	-0.04	0.050			
0.9603	61459.19	3.1720	3.1721	0.0918	24.20	-0.04	0.050			
0.9604	61465.04	3.1710	3.1710	0.0916	24.20	-0.04	0.050			
0.9605	61470.89	3.1700	3.1697	0.0914	24.20	-0.04	0.050			
0.9606	61476.74	3.1690	3.1690	0.0912	24.20	-0.04	0.050			
0.9607	61482.57	3.1680	3.1681	0.0910	24.20	-0.04	0.050			
0.9608	61488.38	3.1670	3.1671	0.0908	24.20	-0.04	0.050			
0.9608	61494.16	3.1660	3.1661	0.0905	24.20	-0.04	0.050			
0.9609	61500.20	3.1650	3.1650	0.0899	24.20	-0.04	0.050			
0.9610	61505.94	3.1640	3.1640	0.0896	24.20	-0.04	0.050			
0.9611	61511.66	3.1630	3.1631	0.0892	24.20	-0.04	0.050			
0.9612	61517.36	3.1620	3.1620	0.0889	24.20	-0.04	0.050			
0.9613	61523.04	3.1610	3.1608	0.0885	24.20	-0.04	0.050			
0.9614	61528.69	3.1600	3.1599	0.0881	24.20	-0.04	0.050			
0.9615	61534.41	3.1590	3.1591	0.0880	24.20	-0.04	0.050			
0.9616	61540.03	3.1580	3.1581	0.0876	24.20	-0.04	0.050			
0.9617	61545.62	3.1570	3.1571	0.0872	24.20	-0.04	0.050			
0.9617	61551.18	3.1560	3.1561	0.0867	24.20	-0.04	0.050			
0.9618	61556.72	3.1550	3.1551	0.0863	24.20	-0.04	0.050			
0.9619	61562.23	3.1540	3.1541	0.0859	24.20	-0.04	0.050			
0.9620	61567.72	3.1530	3.1530	0.0855	24.20	-0.04	0.050			
0.9621	61573.09	3.1520	3.1519	0.0855	24.20	-0.04	0.050			
0.9622	61578.48	3.1510	3.1510	0.0850	24.20	-0.04	0.050			
0.9622	61583.91	3.1500	3.1500	0.0847	24.20	-0.04	0.050			
0.9623	61589.32	3.1490	3.1490	0.0844	24.20	-0.04	0.050			
0.9624	61594.71	3.1480	3.1480	0.0840	24.20	-0.04	0.050			
0.9625	61600.08	3.1470	3.1470	0.0837	24.20	-0.04	0.050			
0.9626	61605.43	3.1460	3.1460	0.0834	24.20	-0.04	0.050			
0.9627	61610.60	3.1450	3.1450	0.0828	24.20	-0.04	0.050			
0.9627	61615.89	3.1440	3.1440	0.0825	24.20	-0.04	0.050			
0.9628	61621.17	3.1430	3.1430	0.0823	24.20	-0.04	0.050			
0.9629	61626.43	3.1420	3.1420	0.0821	24.20	-0.04	0.050			
0.9630	61631.68	3.1410	3.1410	0.0819	24.20	-0.04	0.050			
0.9631	61636.91	3.1400	3.1401	0.0817	24.20	-0.04	0.050			
0.9632	61642.27	3.1390	3.1391	0.0816	24.20	-0.04	0.050			
0.9632	61647.52	3.1380	3.1381	0.0812	24.20	-0.04	0.050			
0.9633	61652.71	3.1370	3.1370	0.0809	24.20	-0.04	0.050			
0.9634	61657.88	3.1360	3.1360	0.0806	24.20	-0.04	0.050			
0.9635	61663.02	3.1350	3.1350	0.0803	24.20	-0.04	0.050			
0.9636	61668.15	3.1340	3.1340	0.0799	24.20	-0.04	0.050			
0.9636	61673.26	3.1330	3.1330	0.0796	24.20	-0.04	0.050			
0.9637	61678.42	3.1320	3.1320	0.0794	24.20	-0.04	0.050			
0.9638	61683.42	3.1310	3.1309	0.0791	24.20	-0.04	0.050			
0.9639	61688.47	3.1300	3.1300	0.0788	24.20	-0.04	0.050			
0.9640	61693.50	3.1290	3.1290	0.0784	24.20	-0.04	0.050			
0.9640	61698.51	3.1280	3.1281	0.0781	24.20	-0.04	0.050			
0.9641	61703.50	3.1270	3.1270	0.0778	24.20	-0.04	0.050			
0.9642	61708.46	3.1260	3.1260	0.0774	24.20	-0.04	0.050			
0.9643	61713.34	3.1250	3.1250	0.0770	24.20	-0.04	0.050			
0.9643	61718.26	3.1240	3.1240	0.0768	24.20	-0.04	0.050			
0.9644	61723.16	3.1230	3.1230	0.0765	24.20	-0.04	0.050			
0.9645	61728.04	3.1220	3.1220	0.0762	24.20	-0.04	0.050			
0.9646	61732.91	3.1210	3.1210	0.0759	24.20	-0.04	0.050			
0.9647	61737.76	3.1200	3.1199	0.0756	24.20	-0.04	0.050			
0.9647	61742.59	3.1190	3.1190	0.0753	24.20	-0.04	0.050			
0.9648	61747.38	3.1180	3.1180	0.0750	24.20	-0.04	0.050			
0.9649	61752.18	3.1170	3.1170	0.0748	24.20	-0.04	0.050			
0.9650	61756.95	3.1160	3.1160	0.0745	24.20	-0.04	0.050			
0.9650	61761.71	3.1150	3.1150	0.0742	24.20	-0.04	0.050			
0.9651	61766.45	3.1140	3.1140	0.0739	24.20	-0.04	0.050			
0.9652	61771.17	3.1130	3.1131	0.0737	24.20	-0.04	0.050			
0.9652	61775.88	3.1120	3.1120	0.0734	24.20	-0.04	0.050			
0.9653	61780.57	3.1110	3.1110	0.0731	24.20	-0.04	0.050			
0.9654	61785.24	3.1100	3.1100	0.0728	24.20	-0.04	0.050			
0.9655	61789.90	3.1090	3.1089	0.0726	24.20	-0.04	0.050			
0.9655	61794.53	3.1080	3.1079	0.0723	24.20	-0.04	0.050			
0.9656	61799.15	3.1070	3.1070	0.0720	24.20	-0.04	0.050			
0.9657	61803.75	3.1060	3.1060	0.0717	24.20	-0.04	0.050			
0.9658	61808.33	3.1050	3.1050	0.0715	24.20	-0.04	0.050			
0.9658	61812.90	3.1040	3.1041	0.0712	24.20	-0.04	0.050			
0.9659	61817.44	3.1030	3.1031	0.0709	24.21	-0.03	0.050			
0.9660	61821.97	3.1020	3.1021	0.0706	24.21	-0.03	0.050			
0.9660	61826.48	3.1010	3.1011	0.0704	24.21	-0.03	0.050			
0.9661	61830.97	3.1000	3.1001	0.0701	24.21	-0.03	0.050			
0.9662	61835.47	3.0990	3.0991	0.0698	24.21	-0.03	0.050			
0.9662	61839.93	3.0980	3.0980	0.0695	24.21	-0.03	0.050			
0.9663	61844.36	3.0970	3.0968	0.0692	24.21	-0.03	0.050			
0.9664	61848.78	3.0960	3.0960	0.0689	24.21	-0.03	0.050			
0.9665	61853.21	3.0950	3.0950	0.0687	24.21	-0.03	0.050			
0.9665	61857.59	3.0940	3.0940	0.0684	24.21	-0.03	0.050			
0.9666	61861.96	3.0930	3.0930	0.0681	24.21	-0.03	0.050			
0.9667	61866.30	3.0920	3.0920	0.0678	24.21	-0.03	0.050			
0.9667	61870.61	3.0910	3.0910	0.0675	24.22	-0.02	0.050			
0.9668	61874.92	3.0900	3.0900	0.0673	24.22	-0.02	0.050			
0.9669	61879.22	3.0890	3.0890	0.0670	24.22	-0.02	0.050			
0.9669	61883.49	3.0880	3.0880	0.0667	24.22	-0.02	0.050			
0.9670	61887.74	3.0870	3.0870	0.0664	24.22	-0.02	0.050			
0.9671	61891.98	3.0860	3.0859	0.0661	24.22	-0.02	0.050			
0.9671	61896.20	3.0850	3.0848	0.0658	24.22	-0.02	0.050			
0.9672	61900.41	3.0840	3.0839	0.0656	24.22	-0.02	0.050			
0.9673	61904.59	3.0830	3.0830	0.0653	24.22	-0.02	0.050			
0.9673	61908.76	3.0820	3.0820	0.0650	24.22	-0.02	0.050			
0.9674	61912.89	3.0810	3.0810	0.0648	24.22	-0.02	0.050			
0.9675	61917.03	3.0800	3.0801	0.0645	24.22	-0.02	0.050			
0.9675	61921.12	3.0790	3.0791	0.0642	24.22	-0.02	0.050			
0.9676	61925.22	3.0780	3.0781	0.0639	24.22	-0.02	0.050			
0.9676	61929.31	3.0770	3.0771	0.0637	24.22	-0.02	0.050			
0.9677	61933.38	3.0760	3.0760	0.0634	24.22	-0.02	0.050			
0.9678	61937.43	3.0750	3.0750	0.0632	24.22	-0.02	0.050			
0.9678	61941.46	3.0740	3.0740	0.0629	24.22	-0.02	0.050			
0.9679	61945.49	3.0730	3.0729	0.0627	24.22	-0.02	0.050			
0.9680	61949.49	3.0720	3.0718	0.0624	24.22	-0.02	0.050			
0.9680	61953.56	3.0710	3.0711	0.0621	24.22	-0.02	0.050			
0.9681	61957.52	3.0700	3.0701	0.0618	24.22	-0.02	0.050			
0.9681	61961.47	3.0690	3.0691	0.0615	24.22	-0.02	0.050			
0.9682	61965.40	3.0680	3.0681	0.0613	24.22	-0.02	0.050			
0.9683	61969.31	3.0670	3.0671	0.0610	24.22	-0.02	0.050			
0.9683	61973.21	3.0660	3.0661	0.0607	24.22	-0.02	0.050			
0.9684	61977.08	3.0650	3.0651	0.0604	24.22	-0.02	0.050			
0.9685	61980.93	3.0640	3.0641	0.0601	24.22	-0.02	0.050			
0.9685	61984.77	3.0630	3.0631	0.0598	24.22	-0.02	0.050			
0.9686	61989.37	3.0620	3.0619	0.0574	24.22	-0.02	0.050			
0.9686	61993.33	3.0610	3.0609	0.0584	24.22	-0.02	0.050			
0.9687	61997.04	3.0600	3.0599	0.0576	24.22	-0.02	0.050			
0.9688	62000.70	3.0590	3.0588	0.0568	24.22	-0.02	0.050			
0.9688	62004.32	3.0580	3.0577	0.0560	24.22	-0.02	0.050			
0.9689	62007.88	3.0570	3.0569	0.0552	24.22	-0.02	0.050			
0.9689	62011.38	3.0560	3.0560	0.0544	24.22	-0.02	0.050			
0.9690	62014.84	3.0550	3.0550	0.0536	24.22	-0.02	0.050			
0.9690	62018.25	3.0540	3.0541	0.0528	24.23	-0.01	0.050			
0.9691	62021.60	3.0530	3.0531	0.0520	24.23	-0.01	0.050			
0.9691	62024.90	3.0520	3.0522	0.0512	24.23	-0.01	0.050			
0.9692	62028.97	3.0510	3.0511	0.0514	24.23	-0.01	0.050			
0.9693	62032.23	3.0500	3.0502	0.0503	24.23	-0.01	0.050			
0.9693	62035.42	3.0490	3.0493	0.0493	24.23	-0.01	0.050			
0.9694	62038.53	3.0480	3.0483	0.0482	24.23	-0.01	0.050			
0.9694	62041.58	3.0470	3.0474	0.0471	24.23	-0.01	0.050			
0.9694	62044.57	3.0460	3.0466	0.0460	24.24	-0.00	0.050			
0.9695	62047.48	3.0450	3.0457	0.0450	24.24	-0.00	0.050			
0.9695	62050.32	3.0440	3.0448	0.0439	24.24	-0.00	0.050			
0.9696	62053.10	3.0430	3.0439	0.0428	24.24	-0.00	0.050			
0.9696	62055.80	3.0420	3.0428	0.0418	24.24	-0.00	0.050			
0.9697	62058.44	3.0410	3.0419	0.0407	24.24	0.00	0.050			
0.9697	62061.01	3.0400	3.0412	0.0396	24.24	0.00	0.050			
0.9697	62063.51	3.0390	3.0404	0.0385	24.24	0.00	0.050			
0.9698	62065.94	3.0380	3.0394	0.0375	24.24	0.00	0.050			
0.9698	62068.31	3.0370	3.0384	0.0364	24.24	0.00	0.050			
