Ah_balance (normalized)	Ah_balance (mAh)	Voltage - fit (V)	Voltage -  interpolate (V)	dQ/dV (1/V)	Temperature (°C)	Temperature - diff (°C)	Current (C)	R_DC 0ms (mOhm)	R_DC 50ms (mOhm)	R_DC 50 ms PEC (mOhm)
0.0002	9.84	4.1840	4.1839	-0.3205	25.56	0.00	-0.050			
0.0005	31.25	4.1830	4.1827	-0.3597	25.56	0.00	-0.050			
0.0009	55.02	4.1820	4.1817	-0.3832	25.56	0.00	-0.050			
0.0013	80.76	4.1810	4.1809	-0.4093	25.56	0.00	-0.050			
0.0017	108.52	4.1800	4.1798	-0.4337	25.56	0.00	-0.050			
0.0022	137.79	4.1790	4.1790	-0.4546	25.56	0.00	-0.050			
0.0026	168.22	4.1780	4.1779	-0.4727	25.56	0.00	-0.050			
0.0031	199.33	4.1770	4.1771	-0.4891	25.56	0.00	-0.050			
0.0036	231.94	4.1760	4.1760	-0.5040	25.56	0.00	-0.050			
0.0041	265.37	4.1750	4.1751	-0.5175	25.56	0.00	-0.050			
0.0047	299.41	4.1740	4.1740	-0.5300	25.57	0.01	-0.050			
0.0052	334.28	4.1730	4.1732	-0.5413	25.58	0.02	-0.050			
0.0058	369.83	4.1720	4.1720	-0.5516	25.58	0.02	-0.050			
0.0064	408.47	4.1710	4.1710	-0.5657	25.58	0.02	-0.050			
0.0070	445.75	4.1700	4.1700	-0.5745	25.59	0.03	-0.050			
0.0076	483.25	4.1690	4.1690	-0.5820	25.60	0.04	-0.050			
0.0081	520.88	4.1680	4.1680	-0.5882	25.60	0.04	-0.050			
0.0087	559.20	4.1670	4.1671	-0.5947	25.60	0.04	-0.050			
0.0093	597.80	4.1660	4.1660	-0.6005	25.61	0.05	-0.050			
0.0100	637.10	4.1650	4.1649	-0.6060	25.62	0.06	-0.050			
0.0106	676.35	4.1640	4.1641	-0.6106	25.62	0.06	-0.050			
0.0112	715.68	4.1630	4.1630	-0.6148	25.62	0.06	-0.050			
0.0118	755.13	4.1620	4.1620	-0.6189	25.62	0.06	-0.050			
0.0124	795.22	4.1610	4.1611	-0.6236	25.62	0.06	-0.050			
0.0131	835.32	4.1600	4.1600	-0.6271	25.62	0.06	-0.050			
0.0137	875.57	4.1590	4.1591	-0.6317	25.61	0.05	-0.050			
0.0143	916.35	4.1580	4.1581	-0.6347	25.61	0.05	-0.050			
0.0150	957.20	4.1570	4.1571	-0.6373	25.60	0.04	-0.050			
0.0156	998.07	4.1560	4.1561	-0.6401	25.60	0.04	-0.050			
0.0162	1039.49	4.1550	4.1551	-0.6434	25.58	0.02	-0.050			
0.0169	1080.54	4.1540	4.1540	-0.6469	25.58	0.02	-0.050			
0.0175	1122.18	4.1530	4.1530	-0.6492	25.57	0.01	-0.050			
0.0182	1163.85	4.1520	4.1521	-0.6524	25.56	-0.00	-0.050			
0.0188	1205.80	4.1510	4.1510	-0.6551	25.54	-0.02	-0.050			
0.0195	1247.90	4.1500	4.1500	-0.6574	25.54	-0.02	-0.050			
0.0202	1290.20	4.1490	4.1489	-0.6599	25.53	-0.03	-0.050	0.451	0.523	
0.0208	1332.56	4.1480	4.1482	-0.6623	25.51	-0.05	-0.050			
0.0215	1375.12	4.1470	4.1470	-0.6645	25.50	-0.06	-0.050			
0.0222	1417.86	4.1460	4.1460	-0.6667	25.50	-0.06	-0.050			
0.0228	1460.38	4.1450	4.1450	-0.6703	25.49	-0.07	-0.050			
0.0235	1503.44	4.1440	4.1441	-0.6727	25.48	-0.08	-0.050			
0.0242	1546.38	4.1430	4.1432	-0.6750	25.47	-0.09	-0.050			
0.0248	1589.69	4.1420	4.1421	-0.6767	25.46	-0.10	-0.050			
0.0255	1632.91	4.1410	4.1410	-0.6792	25.46	-0.10	-0.050			
0.0262	1676.28	4.1400	4.1399	-0.6825	25.45	-0.11	-0.050			
0.0269	1719.82	4.1390	4.1390	-0.6854	25.44	-0.12	-0.050			
0.0276	1763.63	4.1380	4.1380	-0.6886	25.44	-0.12	-0.050			
0.0283	1808.30	4.1370	4.1369	-0.6921	25.44	-0.12	-0.050			
0.0289	1852.63	4.1360	4.1360	-0.6946	25.44	-0.12	-0.050			
0.0296	1897.13	4.1350	4.1351	-0.6970	25.44	-0.12	-0.050			
0.0303	1941.90	4.1340	4.1340	-0.6995	25.45	-0.11	-0.050			
0.0310	1986.64	4.1330	4.1331	-0.7020	25.46	-0.10	-0.050			
0.0318	2032.03	4.1320	4.1320	-0.7054	25.46	-0.10	-0.050			
0.0325	2077.22	4.1310	4.1310	-0.7076	25.46	-0.10	-0.050			
0.0332	2122.87	4.1300	4.1300	-0.7103	25.48	-0.08	-0.050			
0.0339	2168.62	4.1290	4.1290	-0.7123	25.50	-0.06	-0.050			
0.0346	2214.61	4.1280	4.1280	-0.7132	25.52	-0.04	-0.050			
0.0353	2260.72	4.1270	4.1270	-0.7137	25.53	-0.03	-0.050			
0.0360	2306.64	4.1260	4.1259	-0.7146	25.53	-0.03	-0.050			
0.0368	2352.19	4.1250	4.1250	-0.7158	25.53	-0.03	-0.050			
0.0375	2398.55	4.1240	4.1239	-0.7170	25.54	-0.02	-0.050			
0.0382	2444.45	4.1230	4.1230	-0.7180	25.53	-0.03	-0.050			
0.0389	2490.39	4.1220	4.1219	-0.7184	25.53	-0.03	-0.050			
0.0396	2536.32	4.1210	4.1210	-0.7194	25.53	-0.03	-0.050			
0.0403	2582.01	4.1200	4.1200	-0.7196	25.52	-0.04	-0.050	0.338	0.528	
0.0411	2627.96	4.1190	4.1191	-0.7202	25.51	-0.05	-0.050			
0.0418	2674.07	4.1180	4.1179	-0.7211	25.51	-0.05	-0.050			
0.0425	2720.37	4.1170	4.1169	-0.7228	25.52	-0.04	-0.050			
0.0432	2766.69	4.1160	4.1159	-0.7233	25.52	-0.04	-0.050			
0.0440	2812.87	4.1150	4.1150	-0.7234	25.52	-0.04	-0.050			
0.0447	2858.96	4.1140	4.1139	-0.7249	25.52	-0.04	-0.050			
0.0454	2905.21	4.1130	4.1130	-0.7261	25.51	-0.05	-0.050			
0.0461	2951.44	4.1120	4.1120	-0.7278	25.51	-0.05	-0.050			
0.0468	2997.93	4.1110	4.1110	-0.7296	25.51	-0.05	-0.050			
0.0476	3044.62	4.1100	4.1100	-0.7316	25.51	-0.05	-0.050			
0.0483	3091.58	4.1090	4.1089	-0.7342	25.52	-0.04	-0.050			
0.0490	3138.71	4.1080	4.1080	-0.7364	25.52	-0.04	-0.050			
0.0498	3186.05	4.1070	4.1070	-0.7377	25.52	-0.04	-0.050			
0.0505	3233.29	4.1060	4.1060	-0.7394	25.52	-0.04	-0.050			
0.0513	3280.72	4.1050	4.1050	-0.7402	25.52	-0.04	-0.050			
0.0520	3328.39	4.1040	4.1040	-0.7404	25.53	-0.03	-0.050			
0.0528	3376.05	4.1030	4.1030	-0.7425	25.53	-0.03	-0.050			
0.0535	3423.55	4.1020	4.1020	-0.7431	25.53	-0.03	-0.050			
0.0542	3471.48	4.1010	4.1010	-0.7441	25.53	-0.03	-0.050			
0.0550	3519.34	4.1000	4.1000	-0.7451	25.52	-0.04	-0.050			
0.0557	3566.86	4.0990	4.0991	-0.7464	25.52	-0.04	-0.050			
0.0565	3614.83	4.0980	4.0979	-0.7475	25.50	-0.06	-0.050			
0.0572	3662.96	4.0970	4.0970	-0.7474	25.50	-0.06	-0.050			
0.0580	3710.83	4.0960	4.0961	-0.7479	25.47	-0.09	-0.050			
0.0587	3759.14	4.0950	4.0949	-0.7472	25.46	-0.10	-0.050			
0.0595	3806.84	4.0940	4.0939	-0.7463	25.45	-0.11	-0.050			
0.0602	3854.51	4.0930	4.0930	-0.7459	25.43	-0.13	-0.050	0.472	0.617	
0.0610	3902.21	4.0920	4.0921	-0.7457	25.42	-0.14	-0.050			
0.0617	3949.85	4.0910	4.0910	-0.7454	25.41	-0.15	-0.050			
0.0625	3997.45	4.0900	4.0899	-0.7457	25.40	-0.16	-0.050			
0.0632	4044.91	4.0890	4.0891	-0.7462	25.39	-0.17	-0.050			
0.0639	4092.67	4.0880	4.0880	-0.7464	25.37	-0.19	-0.050			
0.0647	4140.42	4.0870	4.0870	-0.7474	25.37	-0.19	-0.050			
0.0654	4188.28	4.0860	4.0860	-0.7482	25.37	-0.19	-0.050			
0.0662	4236.17	4.0850	4.0851	-0.7482	25.37	-0.19	-0.050			
0.0669	4283.76	4.0840	4.0839	-0.7494	25.37	-0.19	-0.050			
0.0677	4331.60	4.0830	4.0831	-0.7504	25.37	-0.19	-0.050			
0.0684	4379.38	4.0820	4.0821	-0.7511	25.37	-0.19	-0.050			
0.0692	4427.22	4.0810	4.0811	-0.7528	25.38	-0.18	-0.050			
0.0699	4475.17	4.0800	4.0800	-0.7549	25.39	-0.17	-0.050			
0.0707	4523.46	4.0790	4.0790	-0.7564	25.41	-0.15	-0.050			
0.0714	4571.76	4.0780	4.0779	-0.7584	25.42	-0.14	-0.050			
0.0722	4620.90	4.0770	4.0770	-0.7601	25.43	-0.13	-0.050			
0.0730	4669.51	4.0760	4.0760	-0.7627	25.44	-0.12	-0.050			
0.0737	4718.64	4.0750	4.0750	-0.7645	25.46	-0.10	-0.050			
0.0745	4767.83	4.0740	4.0740	-0.7670	25.47	-0.09	-0.050			
0.0753	4816.78	4.0730	4.0730	-0.7680	25.48	-0.08	-0.050			
0.0760	4866.05	4.0720	4.0720	-0.7694	25.49	-0.07	-0.050			
0.0768	4915.59	4.0710	4.0710	-0.7706	25.51	-0.05	-0.050			
0.0776	4964.96	4.0700	4.0701	-0.7720	25.53	-0.03	-0.050			
0.0784	5014.44	4.0690	4.0690	-0.7728	25.54	-0.02	-0.050			
0.0791	5063.99	4.0680	4.0681	-0.7743	25.54	-0.02	-0.050			
0.0799	5113.81	4.0670	4.0669	-0.7759	25.56	0.00	-0.050	0.391	0.656	
0.0807	5163.58	4.0660	4.0661	-0.7772	25.58	0.02	-0.050			
0.0815	5213.27	4.0650	4.0650	-0.7788	25.60	0.04	-0.050			
0.0822	5263.11	4.0640	4.0640	-0.7796	25.61	0.05	-0.050			
0.0830	5312.96	4.0630	4.0630	-0.7795	25.63	0.07	-0.050			
0.0838	5362.98	4.0620	4.0620	-0.7807	25.64	0.08	-0.050			
0.0846	5413.01	4.0610	4.0610	-0.7810	25.65	0.09	-0.050			
0.0854	5463.01	4.0600	4.0601	-0.7825	25.66	0.10	-0.050			
0.0861	5513.02	4.0590	4.0590	-0.7835	25.68	0.12	-0.050			
0.0869	5563.40	4.0580	4.0580	-0.7848	25.68	0.12	-0.050			
0.0877	5613.62	4.0570	4.0570	-0.7860	25.68	0.12	-0.050			
0.0885	5664.04	4.0560	4.0560	-0.7864	25.68	0.12	-0.050			
0.0893	5714.36	4.0550	4.0551	-0.7872	25.68	0.12	-0.050			
0.0901	5764.75	4.0540	4.0540	-0.7879	25.67	0.11	-0.050			
0.0909	5815.32	4.0530	4.0529	-0.7879	25.67	0.11	-0.050			
0.0917	5865.95	4.0520	4.0520	-0.7885	25.67	0.11	-0.050			
0.0924	5916.42	4.0510	4.0509	-0.7896	25.68	0.12	-0.050			
0.0932	5966.81	4.0500	4.0501	-0.7900	25.67	0.11	-0.050			
0.0940	6017.63	4.0490	4.0490	-0.7901	25.67	0.11	-0.050			
0.0948	6068.08	4.0480	4.0480	-0.7908	25.66	0.10	-0.050			
0.0956	6118.84	4.0470	4.0472	-0.7903	25.66	0.10	-0.050			
0.0964	6169.52	4.0460	4.0459	-0.7911	25.66	0.10	-0.050			
0.0972	6220.10	4.0450	4.0450	-0.7906	25.65	0.09	-0.050			
0.0980	6270.77	4.0440	4.0441	-0.7906	25.65	0.09	-0.050			
0.0988	6321.79	4.0430	4.0429	-0.7907	25.63	0.07	-0.050			
0.0996	6372.58	4.0420	4.0419	-0.7907	25.63	0.07	-0.050			
0.1004	6422.95	4.0410	4.0411	-0.7899	25.63	0.07	-0.050			
0.1011	6473.38	4.0400	4.0401	-0.7900	25.62	0.06	-0.050			
0.1019	6523.97	4.0390	4.0389	-0.7893	25.61	0.05	-0.050			
0.1027	6574.47	4.0380	4.0381	-0.7888	25.59	0.03	-0.050			
0.1035	6624.99	4.0370	4.0370	-0.7887	25.59	0.03	-0.050			
0.1043	6675.25	4.0360	4.0360	-0.7891	25.58	0.02	-0.050			
0.1051	6725.58	4.0350	4.0349	-0.7895	25.57	0.01	-0.050			
0.1059	6776.00	4.0340	4.0340	-0.7895	25.55	-0.01	-0.050			
0.1067	6826.25	4.0330	4.0331	-0.7910	25.54	-0.02	-0.050			
0.1074	6876.67	4.0320	4.0319	-0.7922	25.53	-0.03	-0.050			
0.1082	6926.97	4.0310	4.0311	-0.7921	25.52	-0.04	-0.050			
0.1090	6977.66	4.0300	4.0299	-0.7937	25.52	-0.04	-0.050			
0.1098	7028.35	4.0290	4.0290	-0.7954	25.50	-0.06	-0.050			
0.1106	7079.21	4.0280	4.0279	-0.7963	25.50	-0.06	-0.050			
0.1114	7130.32	4.0270	4.0270	-0.7980	25.48	-0.08	-0.050			
0.1122	7181.71	4.0260	4.0260	-0.7995	25.47	-0.09	-0.050			
0.1130	7232.61	4.0250	4.0250	-0.8012	25.46	-0.10	-0.050			
0.1138	7284.19	4.0240	4.0240	-0.8028	25.46	-0.10	-0.050			
0.1146	7335.70	4.0230	4.0229	-0.8047	25.44	-0.12	-0.050			
0.1154	7387.27	4.0220	4.0221	-0.8067	25.45	-0.11	-0.050			
0.1162	7439.00	4.0210	4.0209	-0.8076	25.44	-0.12	-0.050			
0.1170	7490.68	4.0200	4.0200	-0.8100	25.44	-0.12	-0.050			
0.1179	7542.50	4.0190	4.0190	-0.8116	25.45	-0.11	-0.050			
0.1187	7594.78	4.0180	4.0179	-0.8135	25.44	-0.12	-0.050			
0.1195	7646.98	4.0170	4.0170	-0.8140	25.44	-0.12	-0.050			
0.1203	7698.94	4.0160	4.0160	-0.8151	25.44	-0.12	-0.050	0.432	0.610	
0.1211	7751.23	4.0150	4.0151	-0.8164	25.45	-0.11	-0.050			
0.1219	7803.64	4.0140	4.0139	-0.8171	25.45	-0.11	-0.050			
0.1228	7856.20	4.0130	4.0130	-0.8174	25.46	-0.10	-0.050			
0.1236	7908.95	4.0120	4.0120	-0.8168	25.46	-0.10	-0.050			
0.1244	7961.51	4.0110	4.0110	-0.8171	25.47	-0.09	-0.050			
0.1252	8013.71	4.0100	4.0101	-0.8190	25.48	-0.08	-0.050			
0.1260	8066.14	4.0090	4.0091	-0.8195	25.49	-0.07	-0.050			
0.1269	8118.60	4.0080	4.0080	-0.8207	25.50	-0.06	-0.050			
0.1277	8170.89	4.0070	4.0069	-0.8225	25.50	-0.06	-0.050			
0.1285	8223.52	4.0060	4.0060	-0.8225	25.51	-0.05	-0.050			
0.1293	8276.27	4.0050	4.0051	-0.8218	25.52	-0.04	-0.050			
0.1301	8328.87	4.0040	4.0040	-0.8217	25.52	-0.04	-0.050			
0.1310	8381.47	4.0030	4.0030	-0.8218	25.52	-0.04	-0.050			
0.1318	8434.38	4.0020	4.0020	-0.8219	25.53	-0.03	-0.050			
0.1326	8486.60	4.0010	4.0009	-0.8222	25.55	-0.01	-0.050			
0.1334	8538.95	4.0000	4.0001	-0.8224	25.56	0.00	-0.050			
0.1342	8591.69	3.9990	3.9991	-0.8239	25.57	0.01	-0.050			
0.1351	8644.53	3.9980	3.9980	-0.8245	25.58	0.02	-0.050			
0.1359	8697.51	3.9970	3.9971	-0.8252	25.58	0.02	-0.050			
0.1367	8750.39	3.9960	3.9960	-0.8257	25.59	0.03	-0.050			
0.1376	8803.37	3.9950	3.9950	-0.8251	25.60	0.04	-0.050			
0.1384	8856.54	3.9940	3.9940	-0.8258	25.60	0.04	-0.050			
0.1392	8910.06	3.9930	3.9929	-0.8259	25.59	0.03	-0.050			
0.1400	8962.64	3.9920	3.9920	-0.8259	25.58	0.02	-0.050			
0.1409	9015.38	3.9910	3.9909	-0.8254	25.58	0.02	-0.050			
0.1417	9067.51	3.9900	3.9901	-0.8233	25.58	0.02	-0.050			
0.1425	9120.40	3.9890	3.9891	-0.8232	25.57	0.01	-0.050			
0.1433	9172.83	3.9880	3.9880	-0.8242	25.56	0.00	-0.050			
0.1441	9225.54	3.9870	3.9869	-0.8243	25.55	-0.01	-0.050			
0.1450	9278.52	3.9860	3.9862	-0.8260	25.53	-0.03	-0.050			
0.1458	9331.47	3.9850	3.9848	-0.8268	25.52	-0.04	-0.050			
0.1466	9384.27	3.9840	3.9840	-0.8263	25.50	-0.06	-0.050			
0.1475	9436.99	3.9830	3.9829	-0.8268	25.48	-0.08	-0.050			
0.1483	9489.92	3.9820	3.9820	-0.8267	25.46	-0.10	-0.050			
0.1491	9542.60	3.9810	3.9810	-0.8257	25.44	-0.12	-0.050			
0.1499	9595.41	3.9800	3.9799	-0.8256	25.44	-0.12	-0.050			
0.1508	9648.41	3.9790	3.9789	-0.8259	25.42	-0.14	-0.050			
0.1516	9701.44	3.9780	3.9781	-0.8267	25.42	-0.14	-0.050			
0.1524	9754.79	3.9770	3.9770	-0.8282	25.42	-0.14	-0.050			
0.1532	9807.28	3.9760	3.9761	-0.8294	25.42	-0.14	-0.050			
0.1541	9860.18	3.9750	3.9750	-0.8310	25.42	-0.14	-0.050			
0.1549	9913.32	3.9740	3.9740	-0.8317	25.43	-0.13	-0.050			
0.1557	9966.71	3.9730	3.9730	-0.8324	25.44	-0.12	-0.050			
0.1566	10019.72	3.9720	3.9720	-0.8324	25.45	-0.11	-0.050			
0.1574	10072.95	3.9710	3.9710	-0.8345	25.45	-0.11	-0.050			
0.1582	10126.24	3.9700	3.9699	-0.8360	25.47	-0.09	-0.050			
0.1591	10180.03	3.9690	3.9688	-0.8364	25.47	-0.09	-0.050			
0.1599	10233.40	3.9680	3.9680	-0.8364	25.49	-0.07	-0.050	0.459	0.638	
0.1607	10287.12	3.9670	3.9670	-0.8381	25.50	-0.06	-0.050			
0.1616	10340.70	3.9660	3.9661	-0.8398	25.50	-0.06	-0.050			
0.1624	10394.62	3.9650	3.9652	-0.8414	25.51	-0.05	-0.050			
0.1633	10448.57	3.9640	3.9640	-0.8427	25.51	-0.05	-0.050			
0.1641	10502.77	3.9630	3.9631	-0.8439	25.51	-0.05	-0.050			
0.1650	10557.02	3.9620	3.9619	-0.8459	25.52	-0.04	-0.050			
0.1658	10611.39	3.9610	3.9612	-0.8464	25.53	-0.03	-0.050			
0.1667	10666.03	3.9600	3.9600	-0.8460	25.54	-0.02	-0.050			
0.1675	10720.23	3.9590	3.9590	-0.8459	25.53	-0.03	-0.050			
0.1683	10773.96	3.9580	3.9580	-0.8453	25.54	-0.02	-0.050			
0.1692	10828.18	3.9570	3.9570	-0.8459	25.55	-0.01	-0.050			
0.1700	10881.92	3.9560	3.9561	-0.8459	25.57	0.01	-0.050			
0.1709	10936.31	3.9550	3.9550	-0.8463	25.58	0.02	-0.050			
0.1717	10990.52	3.9540	3.9540	-0.8465	25.59	0.03	-0.050			
0.1726	11045.11	3.9530	3.9529	-0.8468	25.60	0.04	-0.050			
0.1734	11099.55	3.9520	3.9520	-0.8464	25.60	0.04	-0.050			
0.1743	11153.55	3.9510	3.9509	-0.8453	25.60	0.04	-0.050			
0.1751	11207.86	3.9500	3.9499	-0.8451	25.60	0.04	-0.050			
0.1760	11262.18	3.9490	3.9490	-0.8441	25.60	0.04	-0.050			
0.1768	11315.85	3.9480	3.9480	-0.8442	25.59	0.03	-0.050			
0.1777	11369.95	3.9470	3.9470	-0.8430	25.58	0.02	-0.050			
0.1785	11423.62	3.9460	3.9461	-0.8426	25.57	0.01	-0.050			
0.1793	11477.53	3.9450	3.9451	-0.8421	25.55	-0.01	-0.050			
0.1802	11531.77	3.9440	3.9440	-0.8419	25.53	-0.03	-0.050	0.406	0.580	
0.1810	11585.48	3.9430	3.9430	-0.8410	25.51	-0.05	-0.050			
0.1819	11639.21	3.9420	3.9419	-0.8408	25.49	-0.07	-0.050			
0.1827	11693.19	3.9410	3.9411	-0.8409	25.47	-0.09	-0.050			
0.1835	11747.19	3.9400	3.9399	-0.8403	25.45	-0.11	-0.050			
0.1844	11800.44	3.9390	3.9390	-0.8396	25.43	-0.13	-0.050			
0.1852	11854.02	3.9380	3.9379	-0.8387	25.40	-0.16	-0.050			
0.1861	11907.70	3.9370	3.9372	-0.8382	25.38	-0.18	-0.050			
0.1869	11961.21	3.9360	3.9360	-0.8383	25.38	-0.18	-0.050			
0.1877	12014.89	3.9350	3.9350	-0.8391	25.37	-0.19	-0.050			
0.1886	12068.61	3.9340	3.9340	-0.8390	25.36	-0.20	-0.050			
0.1894	12122.19	3.9330	3.9330	-0.8396	25.37	-0.19	-0.050			
0.1903	12176.13	3.9320	3.9321	-0.8399	25.36	-0.20	-0.050			
0.1911	12229.98	3.9310	3.9311	-0.8388	25.37	-0.19	-0.050			
0.1919	12283.76	3.9300	3.9300	-0.8395	25.38	-0.18	-0.050			
0.1928	12337.32	3.9290	3.9290	-0.8394	25.38	-0.18	-0.050			
0.1936	12390.83	3.9280	3.9281	-0.8385	25.39	-0.17	-0.050			
0.1944	12444.49	3.9270	3.9269	-0.8383	25.40	-0.16	-0.050			
0.1953	12498.42	3.9260	3.9260	-0.8394	25.41	-0.15	-0.050			
0.1961	12551.58	3.9250	3.9251	-0.8411	25.43	-0.13	-0.050			
0.1970	12605.46	3.9240	3.9240	-0.8414	25.45	-0.11	-0.050			
0.1978	12659.27	3.9230	3.9230	-0.8423	25.46	-0.10	-0.050			
0.1986	12712.75	3.9220	3.9220	-0.8431	25.47	-0.09	-0.050			
0.1995	12767.11	3.9210	3.9209	-0.8445	25.48	-0.08	-0.050			
0.2003	12821.06	3.9200	3.9200	-0.8449	25.50	-0.06	-0.050			
0.2012	12874.97	3.9190	3.9190	-0.8453	25.51	-0.05	-0.050			
0.2020	12929.33	3.9180	3.9179	-0.8462	25.52	-0.04	-0.050			
0.2029	12983.63	3.9170	3.9169	-0.8474	25.53	-0.03	-0.050			
0.2037	13037.85	3.9160	3.9159	-0.8472	25.54	-0.02	-0.050			
0.2046	13092.36	3.9150	3.9151	-0.8472	25.55	-0.01	-0.050			
0.2054	13146.79	3.9140	3.9142	-0.8473	25.56	-0.00	-0.050			
0.2063	13201.71	3.9130	3.9130	-0.8465	25.58	0.02	-0.050			
0.2071	13256.05	3.9120	3.9120	-0.8462	25.58	0.02	-0.050			
0.2080	13310.61	3.9110	3.9111	-0.8456	25.60	0.04	-0.050			
0.2088	13364.92	3.9100	3.9100	-0.8438	25.60	0.04	-0.050			
0.2097	13419.01	3.9090	3.9090	-0.8429	25.62	0.06	-0.050			
0.2105	13472.87	3.9080	3.9080	-0.8416	25.62	0.06	-0.050			
0.2114	13526.56	3.9070	3.9071	-0.8409	25.62	0.06	-0.050			
0.2122	13580.11	3.9060	3.9060	-0.8392	25.61	0.05	-0.050			
0.2130	13633.35	3.9050	3.9049	-0.8374	25.61	0.05	-0.050			
0.2139	13686.59	3.9040	3.9040	-0.8372	25.62	0.06	-0.050			
0.2147	13740.34	3.9030	3.9029	-0.8374	25.62	0.06	-0.050			
0.2155	13793.48	3.9020	3.9021	-0.8363	25.61	0.05	-0.050			
0.2164	13847.08	3.9010	3.9010	-0.8355	25.62	0.06	-0.050			
0.2172	13900.67	3.9000	3.9001	-0.8353	25.62	0.06	-0.050			
0.2180	13953.83	3.8990	3.8989	-0.8344	25.63	0.07	-0.050			
0.2189	14007.33	3.8980	3.8980	-0.8342	25.63	0.07	-0.050			
0.2197	14061.06	3.8970	3.8971	-0.8331	25.62	0.06	-0.050			
0.2205	14114.67	3.8960	3.8959	-0.8321	25.62	0.06	-0.050	0.395	0.622	
0.2214	14167.93	3.8950	3.8951	-0.8319	25.62	0.06	-0.050			
0.2222	14221.46	3.8940	3.8942	-0.8311	25.61	0.05	-0.050			
0.2230	14275.03	3.8930	3.8930	-0.8297	25.60	0.04	-0.050			
0.2239	14328.05	3.8920	3.8921	-0.8276	25.60	0.04	-0.050			
0.2247	14380.88	3.8910	3.8910	-0.8263	25.60	0.04	-0.050			
0.2255	14433.75	3.8900	3.8900	-0.8254	25.59	0.03	-0.050			
0.2263	14486.34	3.8890	3.8889	-0.8241	25.58	0.02	-0.050			
0.2272	14538.88	3.8880	3.8880	-0.8220	25.56	0.00	-0.050			
0.2280	14591.21	3.8870	3.8870	-0.8206	25.56	0.00	-0.050			
0.2288	14643.76	3.8860	3.8859	-0.8199	25.55	-0.01	-0.050			
0.2296	14696.00	3.8850	3.8850	-0.8185	25.54	-0.02	-0.050			
0.2304	14747.87	3.8840	3.8841	-0.8175	25.54	-0.02	-0.050			
0.2313	14800.20	3.8830	3.8830	-0.8180	25.54	-0.02	-0.050			
0.2321	14852.49	3.8820	3.8819	-0.8171	25.53	-0.03	-0.050			
0.2329	14904.77	3.8810	3.8811	-0.8167	25.53	-0.03	-0.050			
0.2337	14957.03	3.8800	3.8800	-0.8163	25.53	-0.03	-0.050			
0.2345	15009.21	3.8790	3.8790	-0.8157	25.53	-0.03	-0.050			
0.2353	15061.44	3.8780	3.8780	-0.8156	25.52	-0.04	-0.050			
0.2362	15113.71	3.8770	3.8770	-0.8155	25.50	-0.06	-0.050			
0.2370	15166.03	3.8760	3.8760	-0.8158	25.49	-0.07	-0.050			
0.2378	15218.21	3.8750	3.8750	-0.8138	25.47	-0.09	-0.050			
0.2386	15270.42	3.8740	3.8740	-0.8137	25.47	-0.09	-0.050			
0.2394	15322.66	3.8730	3.8731	-0.8136	25.46	-0.10	-0.050			
0.2402	15374.79	3.8720	3.8719	-0.8122	25.46	-0.10	-0.050	0.250	0.606	
0.2410	15426.68	3.8710	3.8709	-0.8109	25.46	-0.10	-0.050			
0.2419	15478.54	3.8700	3.8700	-0.8097	25.46	-0.10	-0.050			
0.2427	15530.44	3.8690	3.8690	-0.8096	25.45	-0.11	-0.050			
0.2435	15582.12	3.8680	3.8681	-0.8096	25.45	-0.11	-0.050			
0.2443	15633.93	3.8670	3.8670	-0.8085	25.45	-0.11	-0.050			
0.2451	15685.46	3.8660	3.8660	-0.8076	25.46	-0.10	-0.050			
0.2459	15736.71	3.8650	3.8650	-0.8080	25.46	-0.10	-0.050			
0.2467	15788.23	3.8640	3.8639	-0.8077	25.46	-0.10	-0.050			
0.2475	15839.80	3.8630	3.8630	-0.8070	25.46	-0.10	-0.050			
0.2483	15891.57	3.8620	3.8620	-0.8074	25.47	-0.09	-0.050			
0.2491	15943.20	3.8610	3.8611	-0.8084	25.48	-0.08	-0.050			
0.2499	15994.94	3.8600	3.8600	-0.8075	25.50	-0.06	-0.050			
0.2507	16046.70	3.8590	3.8590	-0.8070	25.50	-0.06	-0.050			
0.2515	16097.98	3.8580	3.8580	-0.8076	25.50	-0.06	-0.050			
0.2523	16149.59	3.8570	3.8570	-0.8082	25.51	-0.05	-0.050			
0.2532	16201.69	3.8560	3.8560	-0.8077	25.51	-0.05	-0.050			
0.2540	16253.71	3.8550	3.8550	-0.8084	25.52	-0.04	-0.050			
0.2548	16305.62	3.8540	3.8542	-0.8080	25.52	-0.04	-0.050			
0.2556	16357.25	3.8530	3.8529	-0.8074	25.54	-0.02	-0.050			
0.2564	16408.74	3.8520	3.8520	-0.8083	25.53	-0.03	-0.050			
0.2572	16460.77	3.8510	3.8510	-0.8077	25.54	-0.02	-0.050			
0.2580	16512.19	3.8500	3.8500	-0.8080	25.54	-0.02	-0.050			
0.2588	16563.96	3.8490	3.8490	-0.8076	25.54	-0.02	-0.050			
0.2596	16615.50	3.8480	3.8479	-0.8072	25.54	-0.02	-0.050			
0.2604	16667.05	3.8470	3.8471	-0.8077	25.54	-0.02	-0.050	0.376	0.506	
0.2612	16718.82	3.8460	3.8460	-0.8075	25.53	-0.03	-0.050			
0.2620	16770.21	3.8450	3.8450	-0.8067	25.52	-0.04	-0.050			
0.2628	16822.04	3.8440	3.8441	-0.8067	25.52	-0.04	-0.050			
0.2637	16874.10	3.8430	3.8430	-0.8059	25.52	-0.04	-0.050			
0.2645	16925.60	3.8420	3.8419	-0.8057	25.51	-0.05	-0.050			
0.2653	16977.32	3.8410	3.8410	-0.8056	25.51	-0.05	-0.050			
0.2661	17028.87	3.8400	3.8401	-0.8045	25.51	-0.05	-0.050			
0.2669	17080.68	3.8390	3.8390	-0.8044	25.50	-0.06	-0.050			
0.2677	17131.72	3.8380	3.8379	-0.8035	25.49	-0.07	-0.050			
0.2685	17182.91	3.8370	3.8371	-0.8019	25.49	-0.07	-0.050			
0.2693	17235.02	3.8360	3.8360	-0.8029	25.48	-0.08	-0.050			
0.2701	17286.11	3.8350	3.8351	-0.8031	25.47	-0.09	-0.050			
0.2709	17337.14	3.8340	3.8340	-0.8025	25.45	-0.11	-0.050			
0.2717	17388.13	3.8330	3.8329	-0.8030	25.44	-0.12	-0.050			
0.2725	17438.90	3.8320	3.8320	-0.8030	25.43	-0.13	-0.050			
0.2733	17490.21	3.8310	3.8311	-0.8030	25.42	-0.14	-0.050			
0.2741	17541.42	3.8300	3.8301	-0.8058	25.42	-0.14	-0.050			
0.2749	17592.68	3.8290	3.8289	-0.8065	25.42	-0.14	-0.050			
0.2757	17644.12	3.8280	3.8279	-0.8078	25.44	-0.12	-0.050			
0.2765	17695.93	3.8270	3.8271	-0.8086	25.44	-0.12	-0.050			
0.2773	17748.04	3.8260	3.8259	-0.8089	25.44	-0.12	-0.050			
0.2781	17799.89	3.8250	3.8251	-0.8109	25.47	-0.09	-0.050			
0.2789	17851.99	3.8240	3.8239	-0.8129	25.48	-0.08	-0.050			
0.2798	17904.49	3.8230	3.8231	-0.8133	25.49	-0.07	-0.050			
0.2806	17956.43	3.8220	3.8221	-0.8143	25.51	-0.05	-0.050	0.452	0.630	
0.2814	18008.56	3.8210	3.8209	-0.8160	25.52	-0.04	-0.050			
0.2822	18060.89	3.8200	3.8201	-0.8178	25.53	-0.03	-0.050			
0.2830	18113.27	3.8190	3.8191	-0.8193	25.54	-0.02	-0.050			
0.2838	18165.63	3.8180	3.8181	-0.8206	25.56	-0.00	-0.050			
0.2847	18218.14	3.8170	3.8170	-0.8221	25.56	0.00	-0.050			
0.2855	18270.92	3.8160	3.8159	-0.8235	25.56	0.00	-0.050			
0.2863	18323.27	3.8150	3.8150	-0.8236	25.56	0.00	-0.050			
0.2871	18376.20	3.8140	3.8140	-0.8243	25.56	0.00	-0.050			
0.2880	18429.02	3.8130	3.8130	-0.8247	25.56	0.00	-0.050			
0.2888	18482.18	3.8120	3.8119	-0.8246	25.54	-0.02	-0.050			
0.2896	18535.24	3.8110	3.8110	-0.8252	25.54	-0.02	-0.050			
0.2904	18588.10	3.8100	3.8100	-0.8243	25.53	-0.03	-0.050			
0.2913	18641.03	3.8090	3.8090	-0.8259	25.52	-0.04	-0.050			
0.2921	18693.73	3.8080	3.8080	-0.8280	25.52	-0.04	-0.050			
0.2929	18746.61	3.8070	3.8070	-0.8297	25.52	-0.04	-0.050			
0.2937	18799.49	3.8060	3.8060	-0.8319	25.52	-0.04	-0.050			
0.2946	18852.34	3.8050	3.8050	-0.8333	25.51	-0.05	-0.050			
0.2954	18905.39	3.8040	3.8040	-0.8349	25.51	-0.05	-0.050			
0.2962	18959.00	3.8030	3.8030	-0.8364	25.50	-0.06	-0.050			
0.2971	19012.67	3.8020	3.8019	-0.8366	25.50	-0.06	-0.050			
0.2979	19066.06	3.8010	3.8010	-0.8370	25.50	-0.06	-0.050			
0.2987	19119.57	3.8000	3.7999	-0.8386	25.50	-0.06	-0.050			
0.2996	19173.41	3.7990	3.7989	-0.8403	25.50	-0.06	-0.050			
0.3004	19227.46	3.7980	3.7981	-0.8410	25.50	-0.06	-0.050	0.439	0.576	
0.3013	19281.80	3.7970	3.7970	-0.8420	25.50	-0.06	-0.050			
0.3021	19335.62	3.7960	3.7961	-0.8439	25.50	-0.06	-0.050			
0.3030	19389.96	3.7950	3.7950	-0.8456	25.50	-0.06	-0.050			
0.3038	19444.43	3.7940	3.7941	-0.8482	25.50	-0.06	-0.050			
0.3047	19498.97	3.7930	3.7930	-0.8485	25.50	-0.06	-0.050			
0.3055	19553.62	3.7920	3.7920	-0.8494	25.49	-0.07	-0.050			
0.3064	19607.68	3.7910	3.7910	-0.8515	25.48	-0.08	-0.050			
0.3072	19661.58	3.7900	3.7900	-0.8521	25.47	-0.09	-0.050			
0.3081	19715.73	3.7890	3.7890	-0.8531	25.46	-0.10	-0.050			
0.3089	19769.62	3.7880	3.7880	-0.8535	25.44	-0.12	-0.050			
0.3098	19824.29	3.7870	3.7870	-0.8556	25.44	-0.12	-0.050			
0.3106	19878.71	3.7860	3.7860	-0.8579	25.44	-0.12	-0.050			
0.3115	19933.75	3.7850	3.7850	-0.8609	25.46	-0.10	-0.050			
0.3123	19988.96	3.7840	3.7840	-0.8643	25.46	-0.10	-0.050			
0.3132	20044.30	3.7830	3.7828	-0.8674	25.46	-0.10	-0.050			
0.3141	20100.35	3.7820	3.7820	-0.8697	25.47	-0.09	-0.050			
0.3149	20155.99	3.7810	3.7810	-0.8726	25.49	-0.07	-0.050			
0.3158	20211.91	3.7800	3.7801	-0.8745	25.50	-0.06	-0.050			
0.3167	20268.17	3.7790	3.7790	-0.8778	25.52	-0.04	-0.050			
0.3176	20324.54	3.7780	3.7780	-0.8807	25.53	-0.03	-0.050			
0.3185	20381.24	3.7770	3.7770	-0.8829	25.55	-0.01	-0.050			
0.3193	20437.43	3.7760	3.7759	-0.8843	25.57	0.01	-0.050			
0.3202	20494.28	3.7750	3.7750	-0.8869	25.58	0.02	-0.050	0.467	0.591	
0.3211	20551.22	3.7740	3.7741	-0.8896	25.58	0.02	-0.050			
0.3220	20608.34	3.7730	3.7731	-0.8928	25.58	0.02	-0.050			
0.3229	20665.24	3.7720	3.7719	-0.8961	25.58	0.02	-0.050			
0.3238	20722.58	3.7710	3.7710	-0.8963	25.57	0.01	-0.050			
0.3247	20780.25	3.7700	3.7699	-0.8990	25.56	0.00	-0.050			
0.3256	20838.05	3.7690	3.7689	-0.9013	25.56	-0.00	-0.050			
0.3265	20896.23	3.7680	3.7680	-0.9017	25.54	-0.02	-0.050			
0.3274	20953.72	3.7670	3.7670	-0.9041	25.54	-0.02	-0.050			
0.3283	21011.67	3.7660	3.7660	-0.9056	25.53	-0.03	-0.050			
0.3292	21069.69	3.7650	3.7650	-0.9075	25.53	-0.03	-0.050			
0.3301	21127.34	3.7640	3.7641	-0.9113	25.53	-0.03	-0.050			
0.3310	21185.45	3.7630	3.7629	-0.9155	25.52	-0.04	-0.050			
0.3319	21243.79	3.7620	3.7621	-0.9195	25.52	-0.04	-0.050			
0.3329	21302.41	3.7610	3.7610	-0.9224	25.52	-0.04	-0.050			
0.3338	21361.49	3.7600	3.7600	-0.9261	25.52	-0.04	-0.050			
0.3347	21420.72	3.7590	3.7590	-0.9292	25.51	-0.05	-0.050			
0.3356	21480.30	3.7580	3.7579	-0.9332	25.52	-0.04	-0.050			
0.3366	21539.73	3.7570	3.7571	-0.9381	25.53	-0.03	-0.050			
0.3375	21600.12	3.7560	3.7559	-0.9419	25.54	-0.02	-0.050			
0.3384	21660.30	3.7550	3.7549	-0.9457	25.54	-0.02	-0.050			
0.3394	21721.32	3.7540	3.7541	-0.9499	25.56	0.00	-0.050			
0.3403	21782.08	3.7530	3.7530	-0.9539	25.58	0.02	-0.050			
0.3413	21843.48	3.7520	3.7521	-0.9578	25.58	0.02	-0.050			
0.3423	21905.36	3.7510	3.7510	-0.9649	25.58	0.02	-0.050			
0.3432	21967.39	3.7500	3.7500	-0.9700	25.58	0.02	-0.050			
0.3442	22029.57	3.7490	3.7490	-0.9736	25.58	0.02	-0.050			
0.3452	22092.20	3.7480	3.7479	-0.9783	25.57	0.01	-0.050			
0.3462	22154.46	3.7470	3.7471	-0.9810	25.56	0.00	-0.050			
0.3472	22217.65	3.7460	3.7459	-0.9850	25.56	0.00	-0.050			
0.3481	22280.75	3.7450	3.7450	-0.9887	25.56	0.00	-0.050			
0.3491	22343.96	3.7440	3.7440	-0.9904	25.56	0.00	-0.050			
0.3501	22407.57	3.7430	3.7430	-0.9943	25.56	0.00	-0.050			
0.3511	22471.65	3.7420	3.7419	-0.9989	25.56	0.00	-0.050			
0.3521	22536.14	3.7410	3.7411	-1.0022	25.56	0.00	-0.050			
0.3531	22600.33	3.7400	3.7400	-1.0061	25.56	0.00	-0.050			
0.3541	22664.58	3.7390	3.7390	-1.0102	25.56	0.00	-0.050			
0.3551	22729.27	3.7380	3.7380	-1.0142	25.57	0.01	-0.050			
0.3562	22794.09	3.7370	3.7371	-1.0173	25.57	0.01	-0.050			
0.3572	22859.38	3.7360	3.7359	-1.0226	25.58	0.02	-0.050			
0.3582	22924.52	3.7350	3.7350	-1.0274	25.57	0.01	-0.050			
0.3592	22990.20	3.7340	3.7340	-1.0321	25.57	0.01	-0.050			
0.3603	23056.12	3.7330	3.7330	-1.0376	25.58	0.02	-0.050	0.462	0.548	
0.3613	23121.99	3.7320	3.7321	-1.0428	25.57	0.01	-0.050			
0.3623	23188.80	3.7310	3.7310	-1.0471	25.58	0.02	-0.050			
0.3634	23256.31	3.7300	3.7301	-1.0514	25.56	0.00	-0.050			
0.3644	23323.97	3.7290	3.7291	-1.0571	25.55	-0.01	-0.050			
0.3655	23392.06	3.7280	3.7280	-1.0619	25.54	-0.02	-0.050			
0.3666	23460.04	3.7270	3.7270	-1.0681	25.54	-0.02	-0.050			
0.3676	23528.92	3.7260	3.7260	-1.0737	25.54	-0.02	-0.050			
0.3687	23597.23	3.7250	3.7250	-1.0811	25.54	-0.02	-0.050			
0.3698	23666.21	3.7240	3.7241	-1.0893	25.55	-0.01	-0.050			
0.3709	23735.79	3.7230	3.7231	-1.0956	25.56	0.00	-0.050			
0.3720	23805.95	3.7220	3.7220	-1.1038	25.57	0.01	-0.050			
0.3731	23876.44	3.7210	3.7209	-1.1112	25.57	0.01	-0.050			
0.3742	23948.09	3.7200	3.7200	-1.1171	25.59	0.03	-0.050			
0.3753	24019.77	3.7190	3.7190	-1.1225	25.59	0.03	-0.050			
0.3764	24092.04	3.7180	3.7179	-1.1289	25.59	0.03	-0.050			
0.3776	24164.87	3.7170	3.7170	-1.1351	25.60	0.04	-0.050			
0.3787	24237.75	3.7160	3.7159	-1.1401	25.60	0.04	-0.050			
0.3799	24311.13	3.7150	3.7151	-1.1462	25.61	0.05	-0.050	0.314	0.547	
0.3810	24384.89	3.7140	3.7140	-1.1528	25.62	0.06	-0.050			
0.3822	24459.32	3.7130	3.7131	-1.1585	25.61	0.05	-0.050			
0.3833	24533.93	3.7120	3.7120	-1.1644	25.60	0.04	-0.050			
0.3845	24609.34	3.7110	3.7110	-1.1716	25.57	0.01	-0.050			
0.3857	24684.27	3.7100	3.7099	-1.1784	25.56	-0.00	-0.050			
0.3869	24759.43	3.7090	3.7090	-1.1840	25.53	-0.03	-0.050			
0.3880	24834.77	3.7080	3.7079	-1.1902	25.52	-0.04	-0.050			
0.3892	24910.10	3.7070	3.7070	-1.1966	25.51	-0.05	-0.050			
0.3904	24985.96	3.7060	3.7060	-1.2047	25.49	-0.07	-0.050			
0.3916	25062.33	3.7050	3.7050	-1.2107	25.49	-0.07	-0.050			
0.3928	25139.68	3.7040	3.7040	-1.2199	25.47	-0.09	-0.050			
0.3940	25217.69	3.7030	3.7030	-1.2311	25.46	-0.10	-0.050			
0.3953	25296.49	3.7020	3.7019	-1.2417	25.45	-0.11	-0.050			
0.3965	25376.29	3.7010	3.7010	-1.2528	25.44	-0.12	-0.050			
0.3978	25456.72	3.7000	3.7000	-1.2660	25.46	-0.10	-0.050			
0.3990	25537.86	3.6990	3.6990	-1.2777	25.48	-0.08	-0.050			
0.4003	25620.35	3.6980	3.6981	-1.2880	25.49	-0.07	-0.050	0.374	0.575	
0.4016	25703.22	3.6970	3.6970	-1.2998	25.51	-0.05	-0.050			
0.4029	25786.89	3.6960	3.6961	-1.3114	25.52	-0.04	-0.050			
0.4042	25871.29	3.6950	3.6949	-1.3232	25.52	-0.04	-0.050			
0.4056	25956.68	3.6940	3.6940	-1.3337	25.52	-0.04	-0.050			
0.4069	26042.80	3.6930	3.6930	-1.3450	25.52	-0.04	-0.050			
0.4083	26128.99	3.6920	3.6920	-1.3563	25.53	-0.03	-0.050			
0.4096	26216.29	3.6910	3.6910	-1.3669	25.52	-0.04	-0.050			
0.4110	26303.58	3.6900	3.6901	-1.3791	25.51	-0.05	-0.050			
0.4124	26391.87	3.6890	3.6890	-1.3925	25.51	-0.05	-0.050			
0.4138	26480.31	3.6880	3.6880	-1.4062	25.48	-0.08	-0.050			
0.4152	26570.12	3.6870	3.6869	-1.4198	25.48	-0.08	-0.050			
0.4166	26661.19	3.6860	3.6860	-1.4339	25.47	-0.09	-0.050			
0.4180	26753.41	3.6850	3.6850	-1.4487	25.46	-0.10	-0.050			
0.4195	26845.78	3.6840	3.6840	-1.4640	25.43	-0.13	-0.050			
0.4209	26939.67	3.6830	3.6830	-1.4789	25.41	-0.15	-0.050	0.542	0.681	
0.4224	27034.95	3.6820	3.6819	-1.4941	25.38	-0.18	-0.050			
0.4239	27130.92	3.6810	3.6809	-1.5098	25.37	-0.19	-0.050			
0.4254	27227.24	3.6800	3.6800	-1.5283	25.36	-0.20	-0.050			
0.4270	27325.85	3.6790	3.6791	-1.5458	25.35	-0.21	-0.050			
0.4285	27425.40	3.6780	3.6781	-1.5647	25.34	-0.22	-0.050			
0.4301	27525.64	3.6770	3.6771	-1.5823	25.35	-0.21	-0.050			
0.4317	27627.30	3.6760	3.6760	-1.6021	25.36	-0.20	-0.050			
0.4333	27730.17	3.6750	3.6749	-1.6217	25.39	-0.17	-0.050			
0.4349	27834.32	3.6740	3.6741	-1.6425	25.42	-0.14	-0.050			
0.4366	27939.27	3.6730	3.6731	-1.6632	25.44	-0.12	-0.050			
0.4382	28046.08	3.6720	3.6719	-1.6823	25.47	-0.09	-0.050			
0.4399	28154.70	3.6710	3.6710	-1.7012	25.52	-0.04	-0.050			
0.4416	28263.94	3.6700	3.6700	-1.7196	25.56	0.00	-0.050			
0.4434	28374.74	3.6690	3.6689	-1.7387	25.59	0.03	-0.050			
0.4451	28486.91	3.6680	3.6680	-1.7587	25.60	0.04	-0.050			
0.4469	28600.33	3.6670	3.6669	-1.7799	25.62	0.06	-0.050			
0.4487	28715.47	3.6660	3.6661	-1.8018	25.65	0.09	-0.050			
0.4505	28831.14	3.6650	3.6651	-1.8212	25.66	0.10	-0.050			
0.4523	28948.89	3.6640	3.6641	-1.8408	25.67	0.11	-0.050			
0.4542	29067.60	3.6630	3.6631	-1.8607	25.66	0.10	-0.050			
0.4561	29187.62	3.6620	3.6620	-1.8797	25.64	0.08	-0.050			
0.4579	29308.67	3.6610	3.6610	-1.8944	25.63	0.07	-0.050			
0.4599	29431.51	3.6600	3.6600	-1.9102	25.64	0.08	-0.050	0.415	0.557	
0.4618	29555.16	3.6590	3.6590	-1.9262	25.64	0.08	-0.050			
0.4637	29679.47	3.6580	3.6580	-1.9395	25.66	0.10	-0.050			
0.4657	29803.61	3.6570	3.6570	-1.9572	25.66	0.10	-0.050			
0.4676	29928.92	3.6560	3.6560	-1.9724	25.65	0.09	-0.050			
0.4696	30054.59	3.6550	3.6550	-1.9910	25.62	0.06	-0.050			
0.4716	30182.31	3.6540	3.6540	-2.0086	25.57	0.01	-0.050			
0.4736	30310.61	3.6530	3.6530	-2.0299	25.53	-0.03	-0.050			
0.4756	30440.61	3.6520	3.6520	-2.0516	25.47	-0.09	-0.050			
0.4777	30571.76	3.6510	3.6510	-2.0717	25.43	-0.13	-0.050			
0.4797	30703.32	3.6500	3.6500	-2.0934	25.39	-0.17	-0.050	0.405	0.570	
0.4818	30837.45	3.6490	3.6489	-2.1156	25.37	-0.19	-0.050			
0.4840	30973.47	3.6480	3.6480	-2.1353	25.37	-0.19	-0.050			
0.4861	31111.44	3.6470	3.6470	-2.1543	25.38	-0.18	-0.050			
0.4883	31250.43	3.6460	3.6459	-2.1735	25.39	-0.17	-0.050			
0.4905	31391.40	3.6450	3.6450	-2.1939	25.42	-0.14	-0.050			
0.4927	31533.89	3.6440	3.6439	-2.2137	25.46	-0.10	-0.050			
0.4950	31677.91	3.6430	3.6430	-2.2300	25.48	-0.08	-0.050			
0.4972	31823.13	3.6420	3.6421	-2.2461	25.53	-0.03	-0.050			
0.4995	31968.86	3.6410	3.6410	-2.2629	25.54	-0.02	-0.050	0.316	0.650	
0.5018	32114.97	3.6400	3.6401	-2.2767	25.55	-0.01	-0.050			
0.5041	32261.35	3.6390	3.6391	-2.2906	25.56	-0.00	-0.050			
0.5064	32407.66	3.6380	3.6379	-2.3024	25.54	-0.02	-0.050			
0.5087	32554.86	3.6370	3.6369	-2.3147	25.51	-0.05	-0.050			
0.5110	32703.47	3.6360	3.6360	-2.3253	25.47	-0.09	-0.050			
0.5133	32852.60	3.6350	3.6350	-2.3363	25.44	-0.12	-0.050			
0.5156	33001.28	3.6340	3.6340	-2.3468	25.41	-0.15	-0.050			
0.5180	33152.11	3.6330	3.6329	-2.3580	25.38	-0.18	-0.050			
0.5204	33303.80	3.6320	3.6319	-2.3659	25.40	-0.16	-0.050	0.496	0.691	
0.5228	33456.17	3.6310	3.6311	-2.3722	25.45	-0.11	-0.050			
0.5252	33609.86	3.6300	3.6300	-2.3814	25.51	-0.05	-0.050			
0.5276	33764.56	3.6290	3.6289	-2.3886	25.55	-0.01	-0.050			
0.5300	33919.26	3.6280	3.6280	-2.3926	25.56	0.00	-0.050			
0.5324	34073.31	3.6270	3.6271	-2.3938	25.57	0.01	-0.050			
0.5348	34227.40	3.6260	3.6261	-2.3952	25.58	0.02	-0.050			
0.5372	34382.39	3.6250	3.6250	-2.3941	25.60	0.04	-0.050			
0.5396	34537.07	3.6240	3.6240	-2.3920	25.60	0.04	-0.050	0.410	0.601	
0.5420	34690.32	3.6230	3.6230	-2.3854	25.60	0.04	-0.050			
0.5444	34842.98	3.6220	3.6220	-2.3759	25.60	0.04	-0.050			
0.5468	34995.16	3.6210	3.6211	-2.3664	25.58	0.02	-0.050			
0.5492	35146.38	3.6200	3.6201	-2.3576	25.56	0.00	-0.050			
0.5515	35298.05	3.6190	3.6190	-2.3481	25.52	-0.04	-0.050			
0.5539	35448.33	3.6180	3.6181	-2.3398	25.49	-0.07	-0.050			
0.5562	35597.54	3.6170	3.6170	-2.3279	25.47	-0.09	-0.050			
0.5585	35746.12	3.6160	3.6160	-2.3175	25.44	-0.12	-0.050			
0.5608	35894.01	3.6150	3.6150	-2.3086	25.42	-0.14	-0.050	0.530	0.547	
0.5631	36041.57	3.6140	3.6141	-2.3004	25.42	-0.14	-0.050			
0.5654	36188.40	3.6130	3.6130	-2.2899	25.42	-0.14	-0.050			
0.5677	36333.98	3.6120	3.6120	-2.2789	25.45	-0.11	-0.050			
0.5700	36479.32	3.6110	3.6110	-2.2695	25.49	-0.07	-0.050			
0.5722	36624.00	3.6100	3.6101	-2.2616	25.53	-0.03	-0.050			
0.5745	36768.29	3.6090	3.6091	-2.2525	25.58	0.02	-0.050			
0.5768	36912.39	3.6080	3.6080	-2.2390	25.60	0.04	-0.050			
0.5790	37056.57	3.6070	3.6070	-2.2275	25.61	0.05	-0.050			
0.5812	37199.59	3.6060	3.6061	-2.2158	25.63	0.07	-0.050	0.395	0.633	
0.5835	37341.79	3.6050	3.6049	-2.2022	25.64	0.08	-0.050			
0.5857	37483.45	3.6040	3.6041	-2.1882	25.64	0.08	-0.050			
0.5879	37624.39	3.6030	3.6030	-2.1739	25.64	0.08	-0.050			
0.5901	37763.39	3.6020	3.6020	-2.1583	25.61	0.05	-0.050			
0.5922	37901.83	3.6010	3.6011	-2.1413	25.58	0.02	-0.050			
0.5944	38038.89	3.6000	3.6000	-2.1267	25.54	-0.02	-0.050			
0.5965	38174.00	3.5990	3.5989	-2.1091	25.52	-0.04	-0.050			
0.5986	38308.04	3.5980	3.5980	-2.0940	25.48	-0.08	-0.050			
0.6006	38440.77	3.5970	3.5970	-2.0783	25.46	-0.10	-0.050	0.420	0.625	
0.6027	38572.62	3.5960	3.5960	-2.0612	25.44	-0.12	-0.050			
0.6047	38703.52	3.5950	3.5950	-2.0471	25.43	-0.13	-0.050			
0.6068	38832.98	3.5940	3.5939	-2.0314	25.45	-0.11	-0.050			
0.6088	38962.26	3.5930	3.5928	-2.0150	25.47	-0.09	-0.050			
0.6108	39090.37	3.5920	3.5920	-2.0014	25.48	-0.08	-0.050			
0.6128	39217.38	3.5910	3.5910	-1.9869	25.53	-0.03	-0.050			
0.6148	39344.56	3.5900	3.5901	-1.9736	25.56	0.00	-0.050			
0.6167	39471.31	3.5890	3.5890	-1.9620	25.59	0.03	-0.050			
0.6187	39597.24	3.5880	3.5881	-1.9479	25.61	0.05	-0.050			
0.6207	39722.23	3.5870	3.5871	-1.9321	25.62	0.06	-0.050	0.424	0.654	
0.6226	39845.43	3.5860	3.5859	-1.9162	25.62	0.06	-0.050			
0.6245	39968.54	3.5850	3.5850	-1.9007	25.62	0.06	-0.050			
0.6264	40090.39	3.5840	3.5840	-1.8840	25.61	0.05	-0.050			
0.6283	40210.48	3.5830	3.5829	-1.8681	25.61	0.05	-0.050			
0.6301	40329.53	3.5820	3.5820	-1.8500	25.60	0.04	-0.050			
0.6320	40447.42	3.5810	3.5810	-1.8330	25.60	0.04	-0.050			
0.6338	40563.45	3.5800	3.5799	-1.8149	25.58	0.02	-0.050			
0.6356	40678.56	3.5790	3.5791	-1.7977	25.56	-0.00	-0.050			
0.6374	40792.42	3.5780	3.5781	-1.7818	25.52	-0.04	-0.050			
0.6392	40905.63	3.5770	3.5771	-1.7676	25.49	-0.07	-0.050			
0.6409	41017.92	3.5760	3.5759	-1.7541	25.47	-0.09	-0.050	0.379	0.626	
0.6426	41129.28	3.5750	3.5750	-1.7380	25.47	-0.09	-0.050			
0.6444	41239.97	3.5740	3.5740	-1.7239	25.49	-0.07	-0.050			
0.6461	41349.57	3.5730	3.5730	-1.7100	25.50	-0.06	-0.050			
0.6478	41458.07	3.5720	3.5720	-1.6940	25.52	-0.04	-0.050			
0.6495	41566.13	3.5710	3.5709	-1.6825	25.53	-0.03	-0.050			
0.6511	41672.96	3.5700	3.5700	-1.6694	25.53	-0.03	-0.050			
0.6528	41779.69	3.5690	3.5689	-1.6562	25.53	-0.03	-0.050			
0.6545	41885.73	3.5680	3.5681	-1.6436	25.52	-0.04	-0.050			
0.6561	41990.58	3.5670	3.5670	-1.6299	25.52	-0.04	-0.050			
0.6577	42094.55	3.5660	3.5661	-1.6164	25.53	-0.03	-0.050			
0.6593	42197.74	3.5650	3.5649	-1.6031	25.54	-0.02	-0.050			
0.6609	42300.18	3.5640	3.5639	-1.5892	25.54	-0.02	-0.050	0.490	0.709	
0.6625	42401.39	3.5630	3.5630	-1.5742	25.53	-0.03	-0.050			
0.6641	42502.35	3.5620	3.5620	-1.5601	25.54	-0.02	-0.050			
0.6657	42601.99	3.5610	3.5610	-1.5441	25.56	0.00	-0.050			
0.6672	42700.61	3.5600	3.5601	-1.5272	25.56	0.00	-0.050			
0.6687	42798.35	3.5590	3.5589	-1.5093	25.56	0.00	-0.050			
0.6702	42894.52	3.5580	3.5580	-1.4935	25.56	0.00	-0.050			
0.6717	42990.12	3.5570	3.5571	-1.4773	25.56	0.00	-0.050			
0.6732	43084.16	3.5560	3.5560	-1.4610	25.56	-0.00	-0.050			
0.6746	43177.37	3.5550	3.5551	-1.4454	25.54	-0.02	-0.050			
0.6761	43269.01	3.5540	3.5541	-1.4283	25.54	-0.02	-0.050			
0.6775	43359.53	3.5530	3.5530	-1.4121	25.52	-0.04	-0.050			
0.6789	43448.75	3.5520	3.5520	-1.3978	25.52	-0.04	-0.050			
0.6803	43536.79	3.5510	3.5511	-1.3805	25.51	-0.05	-0.050	0.529	0.627	
0.6816	43624.41	3.5500	3.5501	-1.3673	25.51	-0.05	-0.050			
0.6830	43710.83	3.5490	3.5489	-1.3544	25.50	-0.06	-0.050			
0.6843	43796.42	3.5480	3.5479	-1.3405	25.52	-0.04	-0.050			
0.6856	43880.85	3.5470	3.5469	-1.3276	25.52	-0.04	-0.050			
0.6870	43965.24	3.5460	3.5460	-1.3147	25.55	-0.01	-0.050			
0.6883	44048.66	3.5450	3.5450	-1.3030	25.56	0.00	-0.050			
0.6896	44131.82	3.5440	3.5439	-1.2915	25.58	0.02	-0.050			
0.6908	44214.28	3.5430	3.5430	-1.2801	25.57	0.01	-0.050			
0.6921	44296.05	3.5420	3.5421	-1.2691	25.58	0.02	-0.050			
0.6934	44376.87	3.5410	3.5410	-1.2599	25.58	0.02	-0.050			
0.6946	44457.28	3.5400	3.5400	-1.2502	25.58	0.02	-0.050			
0.6959	44536.88	3.5390	3.5391	-1.2401	25.58	0.02	-0.050			
0.6971	44615.16	3.5380	3.5380	-1.2292	25.58	0.02	-0.050			
0.6983	44693.04	3.5370	3.5370	-1.2220	25.58	0.02	-0.050			
0.6995	44770.30	3.5360	3.5360	-1.2137	25.58	0.02	-0.050			
0.7007	44847.54	3.5350	3.5349	-1.2051	25.60	0.04	-0.050	0.483	0.663	
0.7019	44924.03	3.5340	3.5340	-1.1977	25.61	0.05	-0.050			
0.7031	45000.22	3.5330	3.5329	-1.1891	25.62	0.06	-0.050			
0.7043	45075.16	3.5320	3.5319	-1.1810	25.64	0.08	-0.050			
0.7055	45150.73	3.5310	3.5310	-1.1753	25.65	0.09	-0.050			
0.7066	45225.34	3.5300	3.5301	-1.1685	25.67	0.11	-0.050			
0.7078	45299.40	3.5290	3.5290	-1.1632	25.68	0.12	-0.050			
0.7090	45374.08	3.5280	3.5280	-1.1581	25.68	0.12	-0.050			
0.7101	45448.35	3.5270	3.5271	-1.1517	25.68	0.12	-0.050			
0.7113	45522.24	3.5260	3.5261	-1.1470	25.67	0.11	-0.050			
0.7124	45595.29	3.5250	3.5249	-1.1414	25.66	0.10	-0.050			
0.7136	45667.87	3.5240	3.5241	-1.1380	25.64	0.08	-0.050			
0.7147	45739.91	3.5230	3.5229	-1.1364	25.62	0.06	-0.050			
0.7158	45811.41	3.5220	3.5220	-1.1337	25.60	0.04	-0.050			
0.7169	45882.62	3.5210	3.5210	-1.1325	25.59	0.03	-0.050			
0.7180	45954.31	3.5200	3.5200	-1.1331	25.58	0.02	-0.050			
0.7192	46026.00	3.5190	3.5191	-1.1327	25.56	-0.00	-0.050			
0.7203	46097.75	3.5180	3.5179	-1.1325	25.54	-0.02	-0.050	0.350	0.668	
0.7214	46169.39	3.5170	3.5169	-1.1336	25.53	-0.03	-0.050			
0.7225	46241.80	3.5160	3.5159	-1.1370	25.52	-0.04	-0.050			
0.7237	46314.35	3.5150	3.5149	-1.1432	25.51	-0.05	-0.050			
0.7248	46386.85	3.5140	3.5139	-1.1482	25.50	-0.06	-0.050			
0.7259	46459.77	3.5130	3.5131	-1.1556	25.50	-0.06	-0.050			
0.7271	46533.11	3.5120	3.5121	-1.1619	25.52	-0.04	-0.050			
0.7282	46607.20	3.5110	3.5111	-1.1716	25.50	-0.06	-0.050			
0.7294	46681.44	3.5100	3.5101	-1.1827	25.50	-0.06	-0.050			
0.7306	46756.66	3.5090	3.5089	-1.1942	25.50	-0.06	-0.050			
0.7318	46832.67	3.5080	3.5081	-1.2093	25.50	-0.06	-0.050			
0.7330	46909.70	3.5070	3.5069	-1.2229	25.50	-0.06	-0.050			
0.7342	46986.61	3.5060	3.5060	-1.2380	25.50	-0.06	-0.050			
0.7354	47065.77	3.5050	3.5051	-1.2547	25.50	-0.06	-0.050			
0.7366	47145.13	3.5040	3.5040	-1.2714	25.51	-0.05	-0.050			
0.7379	47226.08	3.5030	3.5031	-1.2898	25.52	-0.04	-0.050			
0.7392	47308.95	3.5020	3.5020	-1.3092	25.52	-0.04	-0.050			
0.7405	47393.22	3.5010	3.5010	-1.3287	25.52	-0.04	-0.050	0.430	0.635	
0.7419	47479.38	3.5000	3.4999	-1.3488	25.54	-0.02	-0.050			
0.7432	47567.14	3.4990	3.4990	-1.3688	25.56	0.00	-0.050			
0.7446	47656.05	3.4980	3.4980	-1.3859	25.56	0.00	-0.050			
0.7460	47746.33	3.4970	3.4970	-1.4036	25.57	0.01	-0.050			
0.7475	47837.41	3.4960	3.4960	-1.4206	25.57	0.01	-0.050			
0.7489	47929.40	3.4950	3.4950	-1.4366	25.56	0.00	-0.050			
0.7504	48022.81	3.4940	3.4941	-1.4525	25.54	-0.02	-0.050			
0.7518	48117.00	3.4930	3.4930	-1.4669	25.54	-0.02	-0.050			
0.7533	48212.69	3.4920	3.4920	-1.4794	25.54	-0.02	-0.050			
0.7548	48308.82	3.4910	3.4909	-1.4885	25.55	-0.01	-0.050			
0.7563	48405.65	3.4900	3.4900	-1.4963	25.53	-0.03	-0.050			
0.7579	48502.47	3.4890	3.4890	-1.5037	25.52	-0.04	-0.050			
0.7594	48599.65	3.4880	3.4880	-1.5088	25.52	-0.04	-0.050			
0.7609	48697.56	3.4870	3.4869	-1.5139	25.51	-0.05	-0.050	0.358	0.630	
0.7624	48795.24	3.4860	3.4861	-1.5171	25.50	-0.06	-0.050			
0.7640	48893.19	3.4850	3.4851	-1.5198	25.50	-0.06	-0.050			
0.7655	48991.41	3.4840	3.4840	-1.5186	25.52	-0.04	-0.050			
0.7670	49090.43	3.4830	3.4830	-1.5176	25.52	-0.04	-0.050			
0.7686	49188.55	3.4820	3.4820	-1.5136	25.52	-0.04	-0.050			
0.7701	49286.59	3.4810	3.4810	-1.5073	25.51	-0.05	-0.050			
0.7716	49384.21	3.4800	3.4800	-1.5004	25.50	-0.06	-0.050			
0.7732	49481.74	3.4790	3.4790	-1.4896	25.50	-0.06	-0.050			
0.7747	49578.11	3.4780	3.4780	-1.4775	25.50	-0.06	-0.050			
0.7761	49673.55	3.4770	3.4769	-1.4629	25.50	-0.06	-0.050			
0.7776	49767.54	3.4760	3.4760	-1.4475	25.50	-0.06	-0.050			
0.7791	49860.63	3.4750	3.4751	-1.4317	25.50	-0.06	-0.050			
0.7805	49953.06	3.4740	3.4740	-1.4140	25.50	-0.06	-0.050	0.493	0.703	
0.7819	50043.98	3.4730	3.4729	-1.3951	25.48	-0.08	-0.050			
0.7833	50134.01	3.4720	3.4720	-1.3731	25.46	-0.10	-0.050			
0.7847	50222.09	3.4710	3.4710	-1.3505	25.44	-0.12	-0.050			
0.7861	50308.51	3.4700	3.4700	-1.3261	25.43	-0.13	-0.050			
0.7874	50392.63	3.4690	3.4688	-1.3009	25.44	-0.12	-0.050			
0.7887	50475.40	3.4680	3.4680	-1.2758	25.46	-0.10	-0.050			
0.7899	50556.00	3.4670	3.4670	-1.2501	25.46	-0.10	-0.050			
0.7912	50635.19	3.4660	3.4660	-1.2250	25.50	-0.06	-0.050			
0.7924	50713.01	3.4650	3.4650	-1.1991	25.51	-0.05	-0.050			
0.7936	50789.31	3.4640	3.4641	-1.1735	25.53	-0.03	-0.050			
0.7947	50863.47	3.4630	3.4631	-1.1479	25.55	-0.01	-0.050			
0.7959	50935.98	3.4620	3.4620	-1.1221	25.57	0.01	-0.050			
0.7970	51006.88	3.4610	3.4610	-1.0967	25.59	0.03	-0.050			
0.7981	51075.97	3.4600	3.4600	-1.0712	25.60	0.04	-0.050			
0.7991	51143.63	3.4590	3.4591	-1.0467	25.60	0.04	-0.050			
0.8001	51208.56	3.4580	3.4580	-1.0222	25.61	0.05	-0.050	0.480	0.700	
0.8011	51273.18	3.4570	3.4570	-0.9983	25.60	0.04	-0.050			
0.8021	51335.48	3.4560	3.4562	-0.9747	25.60	0.04	-0.050			
0.8031	51396.72	3.4550	3.4551	-0.9531	25.60	0.04	-0.050			
0.8040	51456.91	3.4540	3.4540	-0.9324	25.60	0.04	-0.050			
0.8049	51515.57	3.4530	3.4531	-0.9122	25.60	0.04	-0.050			
0.8058	51572.84	3.4520	3.4520	-0.8922	25.60	0.04	-0.050			
0.8067	51628.54	3.4510	3.4510	-0.8716	25.60	0.04	-0.050			
0.8076	51683.52	3.4500	3.4499	-0.8515	25.61	0.05	-0.050			
0.8084	51736.90	3.4490	3.4491	-0.8328	25.61	0.05	-0.050			
0.8092	51789.25	3.4480	3.4480	-0.8136	25.62	0.06	-0.050			
0.8100	51840.42	3.4470	3.4469	-0.7949	25.62	0.06	-0.050			
0.8108	51890.52	3.4460	3.4459	-0.7774	25.62	0.06	-0.050			
0.8116	51939.98	3.4450	3.4451	-0.7606	25.63	0.07	-0.050			
0.8123	51987.93	3.4440	3.4440	-0.7440	25.64	0.08	-0.050			
0.8130	52034.61	3.4430	3.4430	-0.7263	25.64	0.08	-0.050			
0.8138	52080.44	3.4420	3.4419	-0.7102	25.64	0.08	-0.050			
0.8145	52125.28	3.4410	3.4410	-0.6935	25.66	0.10	-0.050			
0.8151	52168.79	3.4400	3.4400	-0.6783	25.66	0.10	-0.050			
0.8158	52211.64	3.4390	3.4389	-0.6622	25.66	0.10	-0.050			
0.8164	52252.68	3.4380	3.4381	-0.6466	25.66	0.10	-0.050			
0.8171	52293.39	3.4370	3.4370	-0.6329	25.66	0.10	-0.050			
0.8177	52333.02	3.4360	3.4360	-0.6195	25.65	0.09	-0.050			
0.8183	52371.46	3.4350	3.4350	-0.6051	25.64	0.08	-0.050			
0.8189	52409.57	3.4340	3.4339	-0.5918	25.64	0.08	-0.050			
0.8195	52446.66	3.4330	3.4331	-0.5784	25.63	0.07	-0.050			
0.8200	52482.90	3.4320	3.4320	-0.5665	25.63	0.07	-0.050			
0.8206	52518.27	3.4310	3.4310	-0.5545	25.62	0.06	-0.050	0.422	0.731	
0.8211	52553.42	3.4300	3.4300	-0.5434	25.61	0.05	-0.050			
0.8217	52587.75	3.4290	3.4290	-0.5326	25.61	0.05	-0.050			
0.8222	52621.14	3.4280	3.4280	-0.5208	25.60	0.04	-0.050			
0.8227	52654.28	3.4270	3.4271	-0.5104	25.61	0.05	-0.050			
0.8232	52686.34	3.4260	3.4260	-0.4998	25.61	0.05	-0.050			
0.8237	52717.47	3.4250	3.4251	-0.4903	25.61	0.05	-0.050			
0.8242	52748.49	3.4240	3.4239	-0.4803	25.61	0.05	-0.050			
0.8247	52778.39	3.4230	3.4229	-0.4713	25.61	0.05	-0.050			
0.8251	52807.88	3.4220	3.4220	-0.4636	25.62	0.06	-0.050			
0.8256	52837.27	3.4210	3.4210	-0.4550	25.62	0.06	-0.050			
0.8260	52865.42	3.4200	3.4200	-0.4464	25.62	0.06	-0.050			
0.8265	52893.52	3.4190	3.4190	-0.4394	25.62	0.06	-0.050			
0.8269	52921.10	3.4180	3.4181	-0.4314	25.62	0.06	-0.050			
0.8273	52947.77	3.4170	3.4170	-0.4246	25.62	0.06	-0.050			
0.8277	52974.47	3.4160	3.4159	-0.4178	25.63	0.07	-0.050			
0.8281	53000.74	3.4150	3.4149	-0.4115	25.63	0.07	-0.050			
0.8285	53026.89	3.4140	3.4141	-0.4058	25.63	0.07	-0.050			
0.8289	53052.71	3.4130	3.4130	-0.3997	25.63	0.07	-0.050			
0.8293	53077.90	3.4120	3.4120	-0.3943	25.64	0.08	-0.050			
0.8297	53102.66	3.4110	3.4111	-0.3881	25.64	0.08	-0.050			
0.8301	53127.30	3.4100	3.4100	-0.3830	25.64	0.08	-0.050			
0.8305	53151.67	3.4090	3.4089	-0.3779	25.64	0.08	-0.050			
0.8309	53175.77	3.4080	3.4080	-0.3733	25.64	0.08	-0.050			
0.8312	53199.50	3.4070	3.4069	-0.3681	25.64	0.08	-0.050			
0.8316	53222.93	3.4060	3.4061	-0.3635	25.64	0.08	-0.050			
0.8320	53245.89	3.4050	3.4050	-0.3580	25.64	0.08	-0.050			
0.8323	53268.49	3.4040	3.4040	-0.3534	25.64	0.08	-0.050			
0.8327	53290.66	3.4030	3.4030	-0.3480	25.64	0.08	-0.050			
0.8330	53312.52	3.4020	3.4019	-0.3439	25.64	0.08	-0.050			
0.8333	53334.40	3.4010	3.4010	-0.3397	25.64	0.08	-0.050			
0.8337	53355.83	3.4000	3.4000	-0.3350	25.63	0.07	-0.050			
0.8340	53377.19	3.3990	3.3991	-0.3310	25.63	0.07	-0.050			
0.8343	53398.13	3.3980	3.3980	-0.3272	25.63	0.07	-0.050			
0.8347	53418.75	3.3970	3.3971	-0.3227	25.63	0.07	-0.050			
0.8350	53439.26	3.3960	3.3959	-0.3190	25.63	0.07	-0.050			
0.8353	53459.34	3.3950	3.3950	-0.3147	25.62	0.06	-0.050			
0.8356	53479.37	3.3940	3.3940	-0.3111	25.62	0.06	-0.050			
0.8359	53499.12	3.3930	3.3930	-0.3083	25.62	0.06	-0.050			
0.8362	53518.75	3.3920	3.3920	-0.3048	25.62	0.06	-0.050			
0.8365	53538.06	3.3910	3.3912	-0.3015	25.61	0.05	-0.050			
0.8368	53557.02	3.3900	3.3900	-0.2976	25.61	0.05	-0.050			
0.8371	53575.89	3.3890	3.3889	-0.2946	25.60	0.04	-0.050			
0.8374	53594.61	3.3880	3.3880	-0.2914	25.60	0.04	-0.050			
0.8377	53613.16	3.3870	3.3870	-0.2883	25.59	0.03	-0.050			
0.8380	53631.42	3.3860	3.3859	-0.2853	25.59	0.03	-0.050			
0.8383	53649.58	3.3850	3.3850	-0.2823	25.59	0.03	-0.050			
0.8386	53667.33	3.3840	3.3839	-0.2797	25.58	0.02	-0.050			
0.8388	53685.14	3.3830	3.3830	-0.2770	25.58	0.02	-0.050			
0.8391	53702.51	3.3820	3.3821	-0.2742	25.57	0.01	-0.050			
0.8394	53719.98	3.3810	3.3810	-0.2718	25.57	0.01	-0.050			
0.8396	53737.10	3.3800	3.3801	-0.2690	25.56	-0.00	-0.050			
0.8399	53754.23	3.3790	3.3790	-0.2668	25.56	-0.00	-0.050			
0.8402	53771.31	3.3780	3.3780	-0.2647	25.55	-0.01	-0.050			
0.8404	53788.18	3.3770	3.3770	-0.2624	25.55	-0.01	-0.050			
0.8407	53804.80	3.3760	3.3760	-0.2598	25.54	-0.02	-0.050	0.452	0.712	
0.8410	53821.35	3.3750	3.3750	-0.2576	25.54	-0.02	-0.050			
0.8412	53837.60	3.3740	3.3740	-0.2560	25.53	-0.03	-0.050			
0.8415	53853.87	3.3730	3.3731	-0.2539	25.53	-0.03	-0.050			
0.8417	53870.05	3.3720	3.3720	-0.2519	25.53	-0.03	-0.050			
0.8420	53885.91	3.3710	3.3710	-0.2496	25.52	-0.04	-0.050			
0.8422	53901.82	3.3700	3.3700	-0.2478	25.52	-0.04	-0.050			
0.8425	53917.68	3.3690	3.3690	-0.2462	25.51	-0.05	-0.050			
0.8427	53933.32	3.3680	3.3680	-0.2445	25.51	-0.05	-0.050			
0.8430	53948.92	3.3670	3.3671	-0.2428	25.50	-0.06	-0.050			
0.8432	53964.24	3.3660	3.3660	-0.2412	25.49	-0.07	-0.050			
0.8434	53979.63	3.3650	3.3650	-0.2396	25.49	-0.07	-0.050			
0.8437	53994.84	3.3640	3.3640	-0.2379	25.48	-0.08	-0.050			
0.8439	54010.09	3.3630	3.3630	-0.2362	25.48	-0.08	-0.050			
0.8441	54025.04	3.3620	3.3621	-0.2343	25.48	-0.08	-0.050			
0.8444	54039.98	3.3610	3.3610	-0.2328	25.47	-0.09	-0.050			
0.8446	54054.96	3.3600	3.3601	-0.2308	25.47	-0.09	-0.050			
0.8448	54069.75	3.3590	3.3589	-0.2294	25.47	-0.09	-0.050			
0.8451	54084.37	3.3580	3.3580	-0.2277	25.46	-0.10	-0.050			
0.8453	54098.87	3.3570	3.3570	-0.2261	25.46	-0.10	-0.050			
0.8455	54113.39	3.3560	3.3560	-0.2246	25.46	-0.10	-0.050			
0.8457	54127.71	3.3550	3.3550	-0.2229	25.46	-0.10	-0.050			
0.8460	54141.97	3.3540	3.3540	-0.2214	25.46	-0.10	-0.050			
0.8462	54156.09	3.3530	3.3531	-0.2196	25.46	-0.10	-0.050			
0.8464	54170.08	3.3520	3.3520	-0.2178	25.46	-0.10	-0.050			
0.8466	54183.62	3.3510	3.3511	-0.2164	25.46	-0.10	-0.050			
0.8468	54197.42	3.3500	3.3500	-0.2149	25.45	-0.11	-0.050			
0.8470	54211.13	3.3490	3.3490	-0.2135	25.45	-0.11	-0.050			
0.8473	54224.72	3.3480	3.3480	-0.2121	25.45	-0.11	-0.050			
0.8475	54238.25	3.3470	3.3469	-0.2107	25.45	-0.11	-0.050			
0.8477	54251.53	3.3460	3.3460	-0.2090	25.45	-0.11	-0.050			
0.8479	54264.73	3.3450	3.3450	-0.2081	25.45	-0.11	-0.050			
0.8481	54278.01	3.3440	3.3440	-0.2070	25.45	-0.11	-0.050			
0.8483	54291.01	3.3430	3.3430	-0.2055	25.45	-0.11	-0.050			
0.8485	54304.02	3.3420	3.3420	-0.2049	25.45	-0.11	-0.050			
0.8487	54317.10	3.3410	3.3409	-0.2040	25.45	-0.11	-0.050			
0.8489	54330.09	3.3400	3.3400	-0.2031	25.45	-0.11	-0.050			
0.8491	54343.17	3.3390	3.3390	-0.2021	25.45	-0.11	-0.050			
0.8493	54356.08	3.3380	3.3380	-0.2012	25.45	-0.11	-0.050			
0.8495	54368.93	3.3370	3.3370	-0.2004	25.45	-0.11	-0.050			
0.8497	54381.73	3.3360	3.3360	-0.1995	25.45	-0.11	-0.050			
0.8499	54394.51	3.3350	3.3349	-0.1985	25.45	-0.11	-0.050			
0.8501	54407.15	3.3340	3.3339	-0.1975	25.46	-0.10	-0.050			
0.8503	54419.76	3.3330	3.3330	-0.1966	25.46	-0.10	-0.050			
0.8505	54432.19	3.3320	3.3320	-0.1961	25.46	-0.10	-0.050			
0.8507	54444.75	3.3310	3.3310	-0.1954	25.46	-0.10	-0.050			
0.8509	54457.24	3.3300	3.3300	-0.1946	25.47	-0.09	-0.050			
0.8511	54469.79	3.3290	3.3291	-0.1934	25.47	-0.09	-0.050			
0.8513	54482.10	3.3280	3.3281	-0.1924	25.47	-0.09	-0.050			
0.8515	54494.38	3.3270	3.3269	-0.1915	25.47	-0.09	-0.050			
0.8517	54506.61	3.3260	3.3260	-0.1907	25.47	-0.09	-0.050			
0.8519	54518.96	3.3250	3.3250	-0.1901	25.47	-0.09	-0.050			
0.8520	54531.09	3.3240	3.3239	-0.1890	25.47	-0.09	-0.050			
0.8522	54543.15	3.3230	3.3229	-0.1880	25.47	-0.09	-0.050			
0.8524	54554.94	3.3220	3.3220	-0.1870	25.48	-0.08	-0.050			
0.8526	54566.89	3.3210	3.3210	-0.1862	25.49	-0.07	-0.050			
0.8528	54578.78	3.3200	3.3201	-0.1854	25.49	-0.07	-0.050			
0.8530	54590.51	3.3190	3.3191	-0.1843	25.50	-0.06	-0.050			
0.8532	54602.33	3.3180	3.3181	-0.1835	25.50	-0.06	-0.050			
0.8533	54614.04	3.3170	3.3170	-0.1827	25.50	-0.06	-0.050			
0.8535	54625.71	3.3160	3.3160	-0.1819	25.50	-0.06	-0.050			
0.8537	54637.37	3.3150	3.3149	-0.1814	25.50	-0.06	-0.050			
0.8539	54648.95	3.3140	3.3140	-0.1806	25.50	-0.06	-0.050			
0.8541	54660.49	3.3130	3.3130	-0.1798	25.51	-0.05	-0.050			
0.8542	54671.90	3.3120	3.3120	-0.1789	25.51	-0.05	-0.050			
0.8544	54683.24	3.3110	3.3110	-0.1783	25.51	-0.05	-0.050			
0.8546	54694.63	3.3100	3.3100	-0.1776	25.52	-0.04	-0.050			
0.8548	54705.75	3.3090	3.3092	-0.1765	25.52	-0.04	-0.050			
0.8550	54717.03	3.3080	3.3080	-0.1760	25.52	-0.04	-0.050			
0.8551	54728.44	3.3070	3.3069	-0.1749	25.53	-0.03	-0.050			
0.8553	54739.62	3.3060	3.3060	-0.1743	25.53	-0.03	-0.050			
0.8555	54750.97	3.3050	3.3050	-0.1740	25.53	-0.03	-0.050			
0.8557	54762.08	3.3040	3.3039	-0.1732	25.53	-0.03	-0.050			
0.8558	54773.18	3.3030	3.3030	-0.1722	25.53	-0.03	-0.050			
0.8560	54784.22	3.3020	3.3020	-0.1714	25.54	-0.02	-0.050			
0.8562	54795.16	3.3010	3.3010	-0.1705	25.54	-0.02	-0.050			
0.8563	54805.89	3.3000	3.3000	-0.1700	25.54	-0.02	-0.050			
0.8565	54816.74	3.2990	3.2991	-0.1692	25.54	-0.02	-0.050			
0.8567	54827.48	3.2980	3.2981	-0.1683	25.54	-0.02	-0.050			
0.8568	54838.22	3.2970	3.2970	-0.1676	25.54	-0.02	-0.050			
0.8570	54848.88	3.2960	3.2960	-0.1670	25.54	-0.02	-0.050			
0.8572	54859.56	3.2950	3.2950	-0.1664	25.54	-0.02	-0.050			
0.8573	54870.19	3.2940	3.2940	-0.1657	25.55	-0.01	-0.050			
0.8575	54880.77	3.2930	3.2929	-0.1650	25.55	-0.01	-0.050			
0.8577	54891.33	3.2920	3.2920	-0.1643	25.55	-0.01	-0.050			
0.8578	54901.72	3.2910	3.2910	-0.1633	25.56	-0.00	-0.050			
0.8580	54912.15	3.2900	3.2899	-0.1627	25.56	0.00	-0.050			
0.8582	54922.55	3.2890	3.2889	-0.1621	25.56	0.00	-0.050			
0.8583	54932.92	3.2880	3.2880	-0.1614	25.56	0.00	-0.050			
0.8585	54943.17	3.2870	3.2870	-0.1606	25.56	0.00	-0.050			
0.8586	54953.43	3.2860	3.2860	-0.1600	25.56	0.00	-0.050			
0.8588	54963.65	3.2850	3.2851	-0.1594	25.56	0.00	-0.050			
0.8590	54973.83	3.2840	3.2841	-0.1588	25.56	0.00	-0.050			
0.8591	54984.18	3.2830	3.2831	-0.1582	25.56	0.00	-0.050			
0.8593	54994.28	3.2820	3.2820	-0.1574	25.57	0.01	-0.050			
0.8594	55004.33	3.2810	3.2809	-0.1567	25.57	0.01	-0.050			
0.8596	55014.47	3.2800	3.2800	-0.1560	25.57	0.01	-0.050			
0.8598	55024.22	3.2790	3.2790	-0.1556	25.57	0.01	-0.050			
0.8599	55034.15	3.2780	3.2780	-0.1549	25.58	0.02	-0.050			
0.8601	55044.05	3.2770	3.2769	-0.1542	25.58	0.02	-0.050			
0.8602	55053.79	3.2760	3.2760	-0.1532	25.58	0.02	-0.050			
0.8604	55063.58	3.2750	3.2750	-0.1526	25.59	0.03	-0.050			
0.8605	55073.32	3.2740	3.2740	-0.1520	25.59	0.03	-0.050			
0.8607	55083.03	3.2730	3.2728	-0.1514	25.59	0.03	-0.050	0.362	0.735	
0.8608	55092.67	3.2720	3.2720	-0.1507	25.59	0.03	-0.050			
0.8610	55102.26	3.2710	3.2710	-0.1502	25.59	0.03	-0.050			
0.8611	55111.86	3.2700	3.2699	-0.1497	25.59	0.03	-0.050			
0.8613	55121.42	3.2690	3.2690	-0.1491	25.59	0.03	-0.050			
0.8614	55130.96	3.2680	3.2680	-0.1486	25.59	0.03	-0.050			
0.8616	55140.36	3.2670	3.2671	-0.1483	25.59	0.03	-0.050			
0.8617	55149.84	3.2660	3.2661	-0.1478	25.59	0.03	-0.050			
0.8619	55159.28	3.2650	3.2651	-0.1473	25.60	0.04	-0.050			
0.8620	55168.70	3.2640	3.2640	-0.1468	25.60	0.04	-0.050			
0.8622	55178.19	3.2630	3.2630	-0.1460	25.60	0.04	-0.050			
0.8623	55187.52	3.2620	3.2620	-0.1454	25.60	0.04	-0.050			
0.8625	55196.80	3.2610	3.2610	-0.1448	25.60	0.04	-0.050			
0.8626	55206.05	3.2600	3.2600	-0.1442	25.60	0.04	-0.050			
0.8627	55215.37	3.2590	3.2591	-0.1438	25.60	0.04	-0.050			
0.8629	55224.40	3.2580	3.2580	-0.1435	25.60	0.04	-0.050			
0.8630	55233.57	3.2570	3.2569	-0.1430	25.60	0.04	-0.050			
0.8632	55242.59	3.2560	3.2560	-0.1422	25.60	0.04	-0.050			
0.8633	55251.68	3.2550	3.2551	-0.1418	25.60	0.04	-0.050			
0.8634	55260.72	3.2540	3.2541	-0.1414	25.60	0.04	-0.050			
0.8636	55269.75	3.2530	3.2530	-0.1409	25.60	0.04	-0.050			
0.8637	55278.76	3.2520	3.2520	-0.1405	25.60	0.04	-0.050			
0.8639	55287.81	3.2510	3.2510	-0.1402	25.60	0.04	-0.050			
0.8640	55296.77	3.2500	3.2500	-0.1397	25.61	0.05	-0.050			
0.8642	55305.75	3.2490	3.2489	-0.1391	25.61	0.05	-0.050			
0.8643	55314.64	3.2480	3.2479	-0.1386	25.61	0.05	-0.050			
0.8644	55323.43	3.2470	3.2469	-0.1379	25.62	0.06	-0.050			
0.8646	55332.24	3.2460	3.2460	-0.1375	25.62	0.06	-0.050			
0.8647	55341.03	3.2450	3.2451	-0.1370	25.62	0.06	-0.050			
0.8648	55349.80	3.2440	3.2441	-0.1365	25.62	0.06	-0.050			
0.8650	55358.47	3.2430	3.2430	-0.1359	25.62	0.06	-0.050			
0.8651	55367.15	3.2420	3.2420	-0.1354	25.62	0.06	-0.050			
0.8652	55375.81	3.2410	3.2411	-0.1349	25.62	0.06	-0.050			
0.8654	55384.43	3.2400	3.2401	-0.1345	25.62	0.06	-0.050			
0.8655	55393.05	3.2390	3.2390	-0.1339	25.62	0.06	-0.050			
0.8657	55401.81	3.2380	3.2380	-0.1339	25.62	0.06	-0.050			
0.8658	55410.36	3.2370	3.2370	-0.1332	25.63	0.07	-0.050			
0.8659	55418.86	3.2360	3.2360	-0.1326	25.63	0.07	-0.050			
0.8661	55427.33	3.2350	3.2350	-0.1319	25.63	0.07	-0.050			
0.8662	55435.42	3.2340	3.2340	-0.1315	25.64	0.08	-0.050			
0.8663	55443.82	3.2330	3.2330	-0.1311	25.64	0.08	-0.050			
0.8664	55452.20	3.2320	3.2320	-0.1308	25.64	0.08	-0.050			
0.8666	55460.56	3.2310	3.2310	-0.1304	25.64	0.08	-0.050			
0.8667	55468.96	3.2300	3.2300	-0.1299	25.64	0.08	-0.050			
0.8668	55477.20	3.2290	3.2290	-0.1294	25.64	0.08	-0.050			
0.8670	55485.47	3.2280	3.2280	-0.1290	25.64	0.08	-0.050			
0.8671	55493.72	3.2270	3.2271	-0.1287	25.64	0.08	-0.050			
0.8672	55501.94	3.2260	3.2260	-0.1283	25.64	0.08	-0.050			
0.8673	55510.15	3.2250	3.2249	-0.1280	25.64	0.08	-0.050			
0.8675	55518.36	3.2240	3.2239	-0.1277	25.64	0.08	-0.050			
0.8676	55526.52	3.2230	3.2229	-0.1273	25.64	0.08	-0.050			
0.8677	55534.66	3.2220	3.2221	-0.1269	25.64	0.08	-0.050			
0.8679	55542.77	3.2210	3.2210	-0.1266	25.64	0.08	-0.050			
0.8680	55550.96	3.2200	3.2200	-0.1258	25.64	0.08	-0.050			
0.8681	55559.06	3.2190	3.2190	-0.1256	25.64	0.08	-0.050			
0.8682	55567.08	3.2180	3.2180	-0.1251	25.64	0.08	-0.050			
0.8684	55575.07	3.2170	3.2170	-0.1246	25.64	0.08	-0.050			
0.8685	55583.02	3.2160	3.2160	-0.1240	25.64	0.08	-0.050			
0.8686	55590.95	3.2150	3.2149	-0.1235	25.64	0.08	-0.050			
0.8687	55598.89	3.2140	3.2140	-0.1233	25.64	0.08	-0.050			
0.8689	55606.76	3.2130	3.2130	-0.1228	25.64	0.08	-0.050			
0.8690	55614.61	3.2120	3.2121	-0.1223	25.64	0.08	-0.050			
0.8691	55622.42	3.2110	3.2111	-0.1218	25.64	0.08	-0.050			
0.8692	55630.07	3.2100	3.2100	-0.1211	25.64	0.08	-0.050			
0.8693	55637.77	3.2090	3.2090	-0.1207	25.64	0.08	-0.050			
0.8695	55645.49	3.2080	3.2080	-0.1203	25.64	0.08	-0.050			
0.8696	55653.17	3.2070	3.2070	-0.1199	25.64	0.08	-0.050			
0.8697	55660.83	3.2060	3.2060	-0.1195	25.64	0.08	-0.050			
0.8698	55668.50	3.2050	3.2049	-0.1191	25.64	0.08	-0.050			
0.8699	55676.11	3.2040	3.2039	-0.1187	25.64	0.08	-0.050			
0.8701	55683.67	3.2030	3.2030	-0.1183	25.64	0.08	-0.050			
0.8702	55691.23	3.2020	3.2020	-0.1179	25.64	0.08	-0.050			
0.8703	55698.77	3.2010	3.2010	-0.1175	25.64	0.08	-0.050			
0.8704	55706.14	3.2000	3.2000	-0.1169	25.64	0.08	-0.050			
0.8705	55713.61	3.1990	3.1990	-0.1166	25.64	0.08	-0.050			
0.8706	55721.13	3.1980	3.1980	-0.1161	25.64	0.08	-0.050			
0.8708	55728.55	3.1970	3.1971	-0.1158	25.64	0.08	-0.050			
0.8709	55735.95	3.1960	3.1962	-0.1154	25.64	0.08	-0.050			
0.8710	55743.32	3.1950	3.1950	-0.1150	25.64	0.08	-0.050			
0.8711	55750.79	3.1940	3.1939	-0.1148	25.64	0.08	-0.050			
0.8712	55758.02	3.1930	3.1929	-0.1146	25.64	0.08	-0.050			
0.8713	55765.34	3.1920	3.1921	-0.1142	25.64	0.08	-0.050			
0.8714	55772.64	3.1910	3.1911	-0.1138	25.64	0.08	-0.050			
0.8716	55779.91	3.1900	3.1900	-0.1135	25.64	0.08	-0.050			
0.8717	55787.10	3.1890	3.1889	-0.1130	25.64	0.08	-0.050			
0.8718	55794.32	3.1880	3.1880	-0.1127	25.64	0.08	-0.050			
0.8719	55801.59	3.1870	3.1870	-0.1122	25.64	0.08	-0.050			
0.8720	55808.75	3.1860	3.1860	-0.1118	25.64	0.08	-0.050			
0.8721	55815.90	3.1850	3.1850	-0.1114	25.64	0.08	-0.050			
0.8722	55823.02	3.1840	3.1840	-0.1110	25.64	0.08	-0.050			
0.8723	55830.12	3.1830	3.1829	-0.1107	25.64	0.08	-0.050			
0.8725	55837.19	3.1820	3.1819	-0.1103	25.64	0.08	-0.050			
0.8726	55844.24	3.1810	3.1810	-0.1099	25.64	0.08	-0.050			
0.8727	55851.26	3.1800	3.1800	-0.1095	25.64	0.08	-0.050			
0.8728	55858.26	3.1790	3.1790	-0.1091	25.64	0.08	-0.050			
0.8729	55865.27	3.1780	3.1780	-0.1088	25.64	0.08	-0.050			
0.8730	55872.22	3.1770	3.1770	-0.1084	25.64	0.08	-0.050			
0.8731	55879.14	3.1760	3.1761	-0.1079	25.64	0.08	-0.050			
0.8732	55885.99	3.1750	3.1751	-0.1077	25.64	0.08	-0.050			
0.8733	55892.86	3.1740	3.1739	-0.1073	25.64	0.08	-0.050			
0.8734	55899.74	3.1730	3.1729	-0.1069	25.64	0.08	-0.050			
0.8735	55906.57	3.1720	3.1720	-0.1065	25.64	0.08	-0.050			
0.8736	55913.37	3.1710	3.1710	-0.1062	25.64	0.08	-0.050			
0.8738	55920.12	3.1700	3.1700	-0.1058	25.64	0.08	-0.050			
0.8739	55926.88	3.1690	3.1690	-0.1055	25.64	0.08	-0.050			
0.8740	55933.62	3.1680	3.1680	-0.1051	25.64	0.08	-0.050			
0.8741	55940.24	3.1670	3.1670	-0.1045	25.64	0.08	-0.050			
0.8742	55946.92	3.1660	3.1661	-0.1042	25.64	0.08	-0.050			
0.8743	55953.58	3.1650	3.1650	-0.1039	25.64	0.08	-0.050			
0.8744	55960.22	3.1640	3.1640	-0.1036	25.64	0.08	-0.050			
0.8745	55966.86	3.1630	3.1629	-0.1032	25.64	0.08	-0.050			
0.8746	55973.45	3.1620	3.1619	-0.1029	25.64	0.08	-0.050			
0.8747	55980.07	3.1610	3.1610	-0.1027	25.64	0.08	-0.050			
0.8748	55986.63	3.1600	3.1599	-0.1023	25.64	0.08	-0.050			
0.8749	55993.17	3.1590	3.1590	-0.1019	25.64	0.08	-0.050			
0.8750	55999.68	3.1580	3.1581	-0.1016	25.64	0.08	-0.050			
0.8751	56006.17	3.1570	3.1571	-0.1012	25.64	0.08	-0.050			
0.8752	56012.62	3.1560	3.1560	-0.1010	25.64	0.08	-0.050			
0.8753	56019.06	3.1550	3.1550	-0.1006	25.64	0.08	-0.050			
0.8754	56025.49	3.1540	3.1540	-0.1003	25.64	0.08	-0.050			
0.8755	56031.90	3.1530	3.1531	-0.0999	25.64	0.08	-0.050			
0.8756	56038.28	3.1520	3.1520	-0.0996	25.64	0.08	-0.050			
0.8757	56044.64	3.1510	3.1509	-0.0993	25.64	0.08	-0.050			
0.8758	56050.99	3.1500	3.1499	-0.0988	25.64	0.08	-0.050			
0.8759	56057.31	3.1490	3.1489	-0.0985	25.64	0.08	-0.050			
0.8760	56063.60	3.1480	3.1481	-0.0981	25.64	0.08	-0.050			
0.8761	56069.87	3.1470	3.1471	-0.0978	25.64	0.08	-0.050			
0.8762	56076.11	3.1460	3.1460	-0.0974	25.64	0.08	-0.050			
0.8763	56082.34	3.1450	3.1450	-0.0971	25.64	0.08	-0.050			
0.8764	56088.46	3.1440	3.1441	-0.0971	25.64	0.08	-0.050			
0.8765	56094.63	3.1430	3.1431	-0.0967	25.64	0.08	-0.050			
0.8766	56100.81	3.1420	3.1420	-0.0964	25.64	0.08	-0.050			
0.8767	56106.97	3.1410	3.1410	-0.0962	25.64	0.08	-0.050			
0.8768	56113.12	3.1400	3.1400	-0.0959	25.63	0.07	-0.050			
0.8769	56119.24	3.1390	3.1390	-0.0956	25.63	0.07	-0.050			
0.8770	56125.36	3.1380	3.1380	-0.0954	25.63	0.07	-0.050			
0.8771	56131.46	3.1370	3.1370	-0.0951	25.63	0.07	-0.050			
0.8771	56137.50	3.1360	3.1360	-0.0948	25.63	0.07	-0.050			
0.8772	56143.55	3.1350	3.1350	-0.0945	25.63	0.07	-0.050			
0.8773	56149.60	3.1340	3.1340	-0.0943	25.63	0.07	-0.050			
0.8774	56155.62	3.1330	3.1329	-0.0941	25.63	0.07	-0.050			
0.8775	56161.63	3.1320	3.1319	-0.0938	25.63	0.07	-0.050			
0.8776	56167.63	3.1310	3.1309	-0.0936	25.63	0.07	-0.050			
0.8777	56173.66	3.1300	3.1300	-0.0932	25.63	0.07	-0.050			
0.8778	56179.62	3.1290	3.1290	-0.0929	25.63	0.07	-0.050			
0.8779	56185.55	3.1280	3.1280	-0.0926	25.63	0.07	-0.050			
0.8780	56191.47	3.1270	3.1271	-0.0924	25.63	0.07	-0.050			
0.8781	56197.38	3.1260	3.1261	-0.0921	25.63	0.07	-0.050			
0.8782	56203.26	3.1250	3.1250	-0.0918	25.63	0.07	-0.050			
0.8783	56209.22	3.1240	3.1240	-0.0917	25.63	0.07	-0.050			
0.8784	56215.08	3.1230	3.1230	-0.0914	25.63	0.07	-0.050			
0.8785	56220.92	3.1220	3.1220	-0.0910	25.63	0.07	-0.050			
0.8785	56226.73	3.1210	3.1210	-0.0907	25.63	0.07	-0.050			
0.8786	56232.53	3.1200	3.1200	-0.0904	25.63	0.07	-0.050			
0.8787	56238.30	3.1190	3.1190	-0.0901	25.63	0.07	-0.050			
0.8788	56244.06	3.1180	3.1180	-0.0897	25.63	0.07	-0.050			
0.8789	56249.65	3.1170	3.1170	-0.0895	25.63	0.07	-0.050			
0.8790	56255.37	3.1160	3.1160	-0.0892	25.63	0.07	-0.050			
0.8791	56261.07	3.1150	3.1150	-0.0890	25.63	0.07	-0.050			
0.8792	56266.76	3.1140	3.1140	-0.0887	25.63	0.07	-0.050			
0.8793	56272.43	3.1130	3.1130	-0.0885	25.62	0.06	-0.050			
0.8793	56278.09	3.1120	3.1120	-0.0883	25.62	0.06	-0.050			
0.8794	56283.73	3.1110	3.1110	-0.0880	25.62	0.06	-0.050			
0.8795	56289.23	3.1100	3.1100	-0.0878	25.62	0.06	-0.050			
0.8796	56294.85	3.1090	3.1091	-0.0876	25.62	0.06	-0.050			
0.8797	56300.45	3.1080	3.1080	-0.0875	25.62	0.06	-0.050			
0.8798	56306.05	3.1070	3.1070	-0.0873	25.62	0.06	-0.050			
0.8799	56311.87	3.1060	3.1059	-0.0867	25.62	0.06	-0.050			
0.8800	56317.41	3.1050	3.1050	-0.0864	25.62	0.06	-0.050			
0.8800	56323.00	3.1040	3.1039	-0.0864	25.62	0.06	-0.050			
0.8801	56328.52	3.1030	3.1029	-0.0860	25.63	0.07	-0.050			
0.8802	56334.02	3.1020	3.1019	-0.0857	25.63	0.07	-0.050			
0.8803	56339.49	3.1010	3.1009	-0.0853	25.63	0.07	-0.050			
0.8804	56344.94	3.1000	3.1000	-0.0850	25.63	0.07	-0.050			
0.8805	56350.37	3.0990	3.0992	-0.0847	25.63	0.07	-0.050			
0.8806	56355.78	3.0980	3.0980	-0.0843	25.63	0.07	-0.050			
0.8806	56361.15	3.0970	3.0970	-0.0844	25.63	0.07	-0.050			
0.8807	56366.54	3.0960	3.0961	-0.0840	25.63	0.07	-0.050	0.391	0.736	
0.8808	56371.91	3.0950	3.0950	-0.0837	25.63	0.07	-0.050			
0.8809	56377.26	3.0940	3.0940	-0.0834	25.62	0.06	-0.050			
0.8810	56382.58	3.0930	3.0929	-0.0831	25.62	0.06	-0.050			
0.8811	56387.89	3.0920	3.0919	-0.0828	25.62	0.06	-0.050			
0.8811	56393.18	3.0910	3.0909	-0.0824	25.62	0.06	-0.050			
0.8812	56398.29	3.0900	3.0899	-0.0820	25.62	0.06	-0.050			
0.8813	56403.50	3.0890	3.0890	-0.0818	25.62	0.06	-0.050			
0.8814	56408.73	3.0880	3.0880	-0.0816	25.62	0.06	-0.050			
0.8815	56413.95	3.0870	3.0870	-0.0814	25.62	0.06	-0.050			
0.8815	56419.05	3.0860	3.0860	-0.0808	25.62	0.06	-0.050			
0.8816	56424.22	3.0850	3.0850	-0.0807	25.62	0.06	-0.050			
0.8817	56429.38	3.0840	3.0840	-0.0805	25.62	0.06	-0.050			
0.8818	56434.52	3.0830	3.0830	-0.0804	25.62	0.06	-0.050			
0.8819	56439.66	3.0820	3.0820	-0.0802	25.62	0.06	-0.050			
0.8820	56444.83	3.0810	3.0809	-0.0800	25.62	0.06	-0.050			
0.8820	56449.94	3.0800	3.0800	-0.0798	25.62	0.06	-0.050			
0.8821	56455.04	3.0790	3.0790	-0.0796	25.62	0.06	-0.050			
0.8822	56460.13	3.0780	3.0781	-0.0794	25.62	0.06	-0.050			
0.8823	56465.33	3.0770	3.0770	-0.0794	25.62	0.06	-0.050			
0.8824	56470.40	3.0760	3.0760	-0.0791	25.62	0.06	-0.050			
0.8824	56475.50	3.0750	3.0750	-0.0788	25.62	0.06	-0.050			
0.8825	56480.54	3.0740	3.0740	-0.0786	25.62	0.06	-0.050			
0.8826	56485.55	3.0730	3.0729	-0.0783	25.62	0.06	-0.050			
0.8827	56490.56	3.0720	3.0720	-0.0780	25.62	0.06	-0.050			
0.8827	56495.54	3.0710	3.0711	-0.0778	25.62	0.06	-0.050			
0.8828	56500.51	3.0700	3.0700	-0.0775	25.62	0.06	-0.050			
0.8829	56505.47	3.0690	3.0689	-0.0772	25.62	0.06	-0.050			
0.8830	56510.40	3.0680	3.0681	-0.0770	25.62	0.06	-0.050			
0.8831	56515.27	3.0670	3.0670	-0.0768	25.62	0.06	-0.050			
0.8831	56520.17	3.0660	3.0660	-0.0766	25.62	0.06	-0.050			
0.8832	56525.07	3.0650	3.0650	-0.0764	25.63	0.07	-0.050			
0.8833	56529.95	3.0640	3.0640	-0.0761	25.63	0.07	-0.050			
0.8834	56534.81	3.0630	3.0630	-0.0759	25.63	0.07	-0.050			
0.8834	56539.66	3.0620	3.0620	-0.0757	25.63	0.07	-0.050			
0.8835	56544.48	3.0610	3.0610	-0.0754	25.63	0.07	-0.050			
0.8836	56549.26	3.0600	3.0600	-0.0753	25.63	0.07	-0.050			
0.8837	56554.07	3.0590	3.0590	-0.0751	25.64	0.08	-0.050			
0.8837	56558.87	3.0580	3.0580	-0.0749	25.64	0.08	-0.050			
0.8838	56563.65	3.0570	3.0570	-0.0747	25.64	0.08	-0.050			
0.8839	56568.42	3.0560	3.0560	-0.0745	25.64	0.08	-0.050			
0.8840	56573.10	3.0550	3.0550	-0.0742	25.64	0.08	-0.050			
0.8840	56577.84	3.0540	3.0540	-0.0740	25.64	0.08	-0.050			
0.8841	56582.57	3.0530	3.0530	-0.0739	25.64	0.08	-0.050			
0.8842	56587.37	3.0520	3.0520	-0.0735	25.64	0.08	-0.050			
0.8843	56592.07	3.0510	3.0510	-0.0733	25.64	0.08	-0.050			
0.8843	56596.76	3.0500	3.0500	-0.0731	25.64	0.08	-0.050			
0.8844	56601.43	3.0490	3.0490	-0.0730	25.64	0.08	-0.050			
0.8845	56606.10	3.0480	3.0480	-0.0728	25.64	0.08	-0.050			
0.8845	56610.83	3.0470	3.0470	-0.0727	25.64	0.08	-0.050			
0.8846	56615.47	3.0460	3.0461	-0.0724	25.64	0.08	-0.050			
0.8847	56620.06	3.0450	3.0451	-0.0722	25.64	0.08	-0.050			
0.8848	56624.68	3.0440	3.0440	-0.0720	25.64	0.08	-0.050			
0.8848	56629.28	3.0430	3.0430	-0.0718	25.64	0.08	-0.050			
0.8849	56633.87	3.0420	3.0419	-0.0716	25.64	0.08	-0.050			
0.8850	56638.44	3.0410	3.0409	-0.0713	25.64	0.08	-0.050			
0.8850	56643.00	3.0400	3.0400	-0.0711	25.64	0.08	-0.050			
0.8851	56647.54	3.0390	3.0390	-0.0709	25.64	0.08	-0.050			
0.8852	56652.07	3.0380	3.0379	-0.0707	25.64	0.08	-0.050			
0.8853	56656.58	3.0370	3.0370	-0.0705	25.64	0.08	-0.050			
0.8853	56661.09	3.0360	3.0360	-0.0703	25.64	0.08	-0.050			
0.8854	56665.58	3.0350	3.0350	-0.0700	25.64	0.08	-0.050			
0.8855	56670.05	3.0340	3.0340	-0.0698	25.64	0.08	-0.050			
0.8855	56674.51	3.0330	3.0330	-0.0696	25.64	0.08	-0.050			
0.8856	56678.93	3.0320	3.0320	-0.0693	25.64	0.08	-0.050			
0.8857	56683.36	3.0310	3.0310	-0.0692	25.64	0.08	-0.050			
0.8857	56687.78	3.0300	3.0300	-0.0690	25.64	0.08	-0.050			
0.8858	56692.18	3.0290	3.0290	-0.0688	25.64	0.08	-0.050			
0.8859	56696.57	3.0280	3.0280	-0.0686	25.65	0.09	-0.050			
0.8860	56700.96	3.0270	3.0270	-0.0684	25.65	0.09	-0.050			
0.8860	56705.33	3.0260	3.0261	-0.0682	25.65	0.09	-0.050			
0.8861	56709.70	3.0250	3.0251	-0.0680	25.65	0.09	-0.050			
0.8862	56714.04	3.0240	3.0240	-0.0678	25.65	0.09	-0.050			
0.8862	56718.38	3.0230	3.0230	-0.0676	25.65	0.09	-0.050			
0.8863	56722.70	3.0220	3.0220	-0.0674	25.65	0.09	-0.050			
0.8864	56727.01	3.0210	3.0210	-0.0672	25.65	0.09	-0.050			
0.8864	56731.33	3.0200	3.0199	-0.0669	25.65	0.09	-0.050			
0.8865	56735.60	3.0190	3.0190	-0.0667	25.65	0.09	-0.050			
0.8866	56739.87	3.0180	3.0180	-0.0665	25.66	0.10	-0.050			
0.8866	56744.12	3.0170	3.0170	-0.0663	25.66	0.10	-0.050			
0.8867	56748.36	3.0160	3.0160	-0.0661	25.66	0.10	-0.050			
0.8868	56752.58	3.0150	3.0150	-0.0659	25.66	0.10	-0.050			
0.8868	56756.79	3.0140	3.0140	-0.0657	25.66	0.10	-0.050			
0.8869	56760.99	3.0130	3.0130	-0.0654	25.66	0.10	-0.050			
0.8870	56765.17	3.0120	3.0120	-0.0652	25.67	0.11	-0.050			
0.8870	56769.33	3.0110	3.0110	-0.0650	25.67	0.11	-0.050			
0.8871	56773.49	3.0100	3.0100	-0.0648	25.67	0.11	-0.050			
0.8872	56777.69	3.0090	3.0091	-0.0645	25.67	0.11	-0.050			
0.8872	56781.81	3.0080	3.0080	-0.0642	25.67	0.11	-0.050			
0.8873	56785.91	3.0070	3.0070	-0.0639	25.67	0.11	-0.050			
0.8873	56789.99	3.0060	3.0061	-0.0636	25.68	0.12	-0.050			
0.8874	56794.05	3.0050	3.0050	-0.0634	25.68	0.12	-0.050			
0.8875	56798.10	3.0040	3.0040	-0.0631	25.68	0.12	-0.050			
