Ah_balance (normalized)	Ah_balance (mAh)	Voltage - fit (V)	Voltage -  interpolate (V)	dQ/dV (1/V)	Temperature (°C)	Temperature - diff (°C)	Current (C)	R_DC 0ms (mOhm)	R_DC 50ms (mOhm)	R_DC 50 ms PEC (mOhm)
0.0001	6.49	4.1880	4.1879	-0.3719	25.42	0.00	-0.050			
0.0005	30.96	4.1870	4.1864	-0.4332	25.42	-0.00	-0.050			
0.0009	59.61	4.1860	4.1858	-0.4613	25.41	-0.01	-0.050			
0.0014	90.55	4.1850	4.1848	-0.4913	25.41	-0.01	-0.050			
0.0019	123.01	4.1840	4.1840	-0.5143	25.40	-0.02	-0.050			
0.0025	157.96	4.1830	4.1827	-0.5381	25.40	-0.02	-0.050			
0.0030	193.94	4.1820	4.1819	-0.5567	25.40	-0.02	-0.050			
0.0036	229.82	4.1810	4.1811	-0.5729	25.39	-0.03	-0.050			
0.0042	267.86	4.1800	4.1801	-0.5883	25.38	-0.04	-0.050			
0.0048	307.17	4.1790	4.1790	-0.6011	25.38	-0.04	-0.050			
0.0054	346.89	4.1780	4.1784	-0.6120	25.38	-0.04	-0.050			
0.0060	387.12	4.1770	4.1771	-0.6215	25.36	-0.06	-0.050			
0.0067	427.74	4.1760	4.1759	-0.6312	25.37	-0.05	-0.050			
0.0074	471.50	4.1750	4.1748	-0.6462	25.36	-0.06	-0.050			
0.0080	513.72	4.1740	4.1742	-0.6541	25.36	-0.06	-0.050			
0.0087	555.95	4.1730	4.1731	-0.6622	25.36	-0.06	-0.050			
0.0093	598.18	4.1720	4.1718	-0.6706	25.35	-0.07	-0.050			
0.0100	641.37	4.1710	4.1712	-0.6770	25.34	-0.08	-0.050			
0.0107	685.38	4.1700	4.1703	-0.6827	25.33	-0.09	-0.050			
0.0114	728.96	4.1690	4.1689	-0.6883	25.33	-0.09	-0.050			
0.0121	772.57	4.1680	4.1679	-0.6956	25.33	-0.09	-0.050			
0.0128	818.33	4.1670	4.1669	-0.7009	25.33	-0.09	-0.050			
0.0135	863.73	4.1660	4.1662	-0.7073	25.33	-0.09	-0.050			
0.0142	909.49	4.1650	4.1648	-0.7094	25.32	-0.10	-0.050			
0.0149	955.14	4.1640	4.1639	-0.7160	25.32	-0.10	-0.050			
0.0157	1002.09	4.1630	4.1626	-0.7182	25.32	-0.10	-0.050			
0.0164	1048.99	4.1620	4.1622	-0.7222	25.31	-0.11	-0.050			
0.0171	1095.28	4.1610	4.1611	-0.7250	25.32	-0.10	-0.050			
0.0179	1142.45	4.1600	4.1599	-0.7249	25.31	-0.11	-0.050			
0.0186	1189.60	4.1590	4.1591	-0.7305	25.31	-0.11	-0.050			
0.0193	1236.66	4.1580	4.1583	-0.7335	25.30	-0.12	-0.050			
0.0201	1283.41	4.1570	4.1571	-0.7354	25.30	-0.12	-0.050	-0.145	0.458	
0.0208	1329.54	4.1560	4.1562	-0.7369	25.30	-0.12	-0.050			
0.0215	1376.98	4.1550	4.1551	-0.7415	25.30	-0.12	-0.050			
0.0222	1423.90	4.1540	4.1542	-0.7431	25.30	-0.12	-0.050			
0.0230	1471.30	4.1530	4.1531	-0.7460	25.29	-0.13	-0.050			
0.0237	1518.45	4.1520	4.1517	-0.7489	25.30	-0.12	-0.050			
0.0245	1566.69	4.1510	4.1510	-0.7514	25.29	-0.13	-0.050			
0.0252	1615.69	4.1500	4.1497	-0.7541	25.29	-0.13	-0.050			
0.0260	1663.52	4.1490	4.1491	-0.7562	25.29	-0.13	-0.050			
0.0268	1712.21	4.1480	4.1478	-0.7571	25.28	-0.14	-0.050			
0.0275	1761.13	4.1470	4.1471	-0.7602	25.28	-0.14	-0.050			
0.0283	1810.24	4.1460	4.1461	-0.7668	25.28	-0.14	-0.050			
0.0290	1859.04	4.1450	4.1448	-0.7687	25.28	-0.14	-0.050			
0.0298	1909.07	4.1440	4.1440	-0.7690	25.28	-0.14	-0.050			
0.0306	1960.06	4.1430	4.1428	-0.7702	25.28	-0.14	-0.050			
0.0314	2009.68	4.1420	4.1421	-0.7736	25.27	-0.15	-0.050			
0.0322	2059.23	4.1410	4.1411	-0.7720	25.27	-0.15	-0.050			
0.0329	2108.47	4.1400	4.1398	-0.7728	25.27	-0.15	-0.050			
0.0337	2157.37	4.1390	4.1390	-0.7725	25.27	-0.15	-0.050			
0.0345	2206.32	4.1380	4.1379	-0.7752	25.27	-0.15	-0.050			
0.0352	2255.48	4.1370	4.1370	-0.7773	25.26	-0.16	-0.050			
0.0360	2304.99	4.1360	4.1362	-0.7790	25.26	-0.16	-0.050			
0.0368	2354.57	4.1350	4.1353	-0.7816	25.26	-0.16	-0.050			
0.0376	2404.50	4.1340	4.1339	-0.7834	25.26	-0.16	-0.050			
0.0384	2454.68	4.1330	4.1326	-0.7861	25.25	-0.17	-0.050			
0.0392	2505.77	4.1320	4.1319	-0.7858	25.26	-0.16	-0.050			
0.0399	2556.79	4.1310	4.1308	-0.7872	25.26	-0.16	-0.050			
0.0408	2608.07	4.1300	4.1299	-0.7877	25.26	-0.16	-0.050			
0.0415	2658.21	4.1290	4.1290	-0.7892	25.25	-0.17	-0.050			
0.0423	2708.09	4.1280	4.1281	-0.7912	25.25	-0.17	-0.050			
0.0431	2759.30	4.1270	4.1270	-0.7922	25.25	-0.17	-0.050			
0.0439	2809.40	4.1260	4.1262	-0.7926	25.24	-0.18	-0.050			
0.0447	2860.64	4.1250	4.1253	-0.7958	25.25	-0.17	-0.050			
0.0455	2912.99	4.1240	4.1243	-0.7960	25.25	-0.17	-0.050			
0.0463	2964.84	4.1230	4.1231	-0.7964	25.25	-0.17	-0.050			
0.0471	3014.65	4.1220	4.1218	-0.7952	25.25	-0.17	-0.050			
0.0479	3065.40	4.1210	4.1210	-0.7948	25.25	-0.17	-0.050			
0.0487	3115.63	4.1200	4.1199	-0.7990	25.25	-0.17	-0.050			
0.0495	3165.95	4.1190	4.1191	-0.7992	25.25	-0.17	-0.050			
0.0503	3217.15	4.1180	4.1182	-0.7986	25.25	-0.17	-0.050			
0.0511	3268.30	4.1170	4.1171	-0.8006	25.25	-0.17	-0.050			
0.0519	3319.44	4.1160	4.1162	-0.8019	25.24	-0.18	-0.050			
0.0527	3371.04	4.1150	4.1151	-0.8032	25.25	-0.17	-0.050			
0.0535	3423.35	4.1140	4.1140	-0.8053	25.25	-0.17	-0.050			
0.0543	3474.96	4.1130	4.1130	-0.8065	25.25	-0.17	-0.050			
0.0551	3527.02	4.1120	4.1121	-0.8073	25.25	-0.17	-0.050			
0.0559	3579.30	4.1110	4.1108	-0.8063	25.26	-0.16	-0.050			
0.0567	3630.02	4.1100	4.1097	-0.8083	25.25	-0.17	-0.050			
0.0575	3681.68	4.1090	4.1091	-0.8097	25.25	-0.17	-0.050			
0.0583	3732.57	4.1080	4.1082	-0.8106	25.26	-0.16	-0.050			
0.0591	3785.36	4.1070	4.1067	-0.8139	25.26	-0.16	-0.050			
0.0600	3837.82	4.1060	4.1060	-0.8140	25.25	-0.17	-0.050	0.330	0.479	
0.0608	3889.62	4.1050	4.1050	-0.8147	25.26	-0.16	-0.050			
0.0616	3941.87	4.1040	4.1039	-0.8197	25.26	-0.16	-0.050			
0.0624	3994.63	4.1030	4.1030	-0.8211	25.26	-0.16	-0.050			
0.0632	4045.94	4.1020	4.1019	-0.8229	25.26	-0.16	-0.050			
0.0640	4097.66	4.1010	4.1009	-0.8258	25.27	-0.15	-0.050			
0.0649	4150.92	4.1000	4.1002	-0.8257	25.27	-0.15	-0.050			
0.0657	4203.96	4.0990	4.0988	-0.8247	25.27	-0.15	-0.050			
0.0665	4258.37	4.0980	4.0981	-0.8307	25.27	-0.15	-0.050			
0.0674	4311.94	4.0970	4.0970	-0.8309	25.27	-0.15	-0.050			
0.0682	4365.68	4.0960	4.0958	-0.8315	25.27	-0.15	-0.050			
0.0691	4419.68	4.0950	4.0949	-0.8297	25.27	-0.15	-0.050			
0.0699	4473.46	4.0940	4.0940	-0.8311	25.27	-0.15	-0.050			
0.0707	4526.73	4.0930	4.0931	-0.8305	25.27	-0.15	-0.050			
0.0716	4580.33	4.0920	4.0921	-0.8284	25.28	-0.14	-0.050			
0.0724	4633.36	4.0910	4.0912	-0.8276	25.28	-0.14	-0.050			
0.0732	4684.93	4.0900	4.0897	-0.8269	25.28	-0.14	-0.050			
0.0740	4737.90	4.0890	4.0888	-0.8290	25.27	-0.15	-0.050			
0.0749	4791.09	4.0880	4.0883	-0.8270	25.28	-0.14	-0.050			
0.0757	4843.46	4.0870	4.0870	-0.8285	25.28	-0.14	-0.050			
0.0765	4896.23	4.0860	4.0862	-0.8297	25.29	-0.13	-0.050			
0.0773	4948.70	4.0850	4.0848	-0.8305	25.29	-0.13	-0.050			
0.0781	5000.42	4.0840	4.0839	-0.8295	25.28	-0.14	-0.050			
0.0790	5054.13	4.0830	4.0831	-0.8330	25.29	-0.13	-0.050			
0.0798	5106.46	4.0820	4.0820	-0.8332	25.29	-0.13	-0.050	0.236	0.394	
0.0806	5159.84	4.0810	4.0809	-0.8368	25.29	-0.13	-0.050			
0.0815	5213.93	4.0800	4.0800	-0.8403	25.29	-0.13	-0.050			
0.0823	5268.97	4.0790	4.0791	-0.8438	25.29	-0.13	-0.050			
0.0832	5323.74	4.0780	4.0777	-0.8401	25.28	-0.14	-0.050			
0.0840	5377.97	4.0770	4.0771	-0.8417	25.29	-0.13	-0.050			
0.0849	5432.64	4.0760	4.0760	-0.8430	25.29	-0.13	-0.050			
0.0858	5488.21	4.0750	4.0749	-0.8405	25.29	-0.13	-0.050			
0.0866	5541.82	4.0740	4.0740	-0.8390	25.29	-0.13	-0.050			
0.0874	5594.40	4.0730	4.0731	-0.8410	25.29	-0.13	-0.050			
0.0883	5648.31	4.0720	4.0721	-0.8424	25.29	-0.13	-0.050			
0.0891	5702.06	4.0710	4.0710	-0.8436	25.29	-0.13	-0.050			
0.0899	5755.07	4.0700	4.0703	-0.8403	25.29	-0.13	-0.050			
0.0908	5809.51	4.0690	4.0691	-0.8389	25.30	-0.12	-0.050			
0.0916	5863.25	4.0680	4.0679	-0.8383	25.30	-0.12	-0.050			
0.0924	5915.73	4.0670	4.0668	-0.8390	25.29	-0.13	-0.050			
0.0933	5969.36	4.0660	4.0661	-0.8391	25.29	-0.13	-0.050			
0.0941	6023.09	4.0650	4.0646	-0.8387	25.29	-0.13	-0.050			
0.0949	6076.58	4.0640	4.0640	-0.8394	25.30	-0.12	-0.050			
0.0958	6130.73	4.0630	4.0631	-0.8388	25.30	-0.12	-0.050			
0.0966	6184.01	4.0620	4.0622	-0.8413	25.30	-0.12	-0.050			
0.0975	6237.12	4.0610	4.0611	-0.8448	25.30	-0.12	-0.050			
0.0983	6291.28	4.0600	4.0601	-0.8470	25.31	-0.11	-0.050			
0.0992	6346.61	4.0590	4.0589	-0.8489	25.30	-0.12	-0.050			
0.1000	6401.00	4.0580	4.0580	-0.8543	25.30	-0.12	-0.050	0.322	0.559	
0.1009	6455.84	4.0570	4.0570	-0.8562	25.30	-0.12	-0.050			
0.1017	6510.52	4.0560	4.0564	-0.8559	25.30	-0.12	-0.050			
0.1026	6565.93	4.0550	4.0547	-0.8567	25.31	-0.11	-0.050			
0.1034	6620.02	4.0540	4.0541	-0.8561	25.31	-0.11	-0.050			
0.1043	6674.85	4.0530	4.0528	-0.8539	25.30	-0.12	-0.050			
0.1052	6729.82	4.0520	4.0522	-0.8575	25.31	-0.11	-0.050			
0.1060	6785.38	4.0510	4.0511	-0.8586	25.31	-0.11	-0.050			
0.1069	6840.31	4.0500	4.0499	-0.8624	25.31	-0.11	-0.050			
0.1078	6896.26	4.0490	4.0491	-0.8653	25.31	-0.11	-0.050			
0.1086	6951.98	4.0480	4.0483	-0.8643	25.31	-0.11	-0.050			
0.1095	7006.87	4.0470	4.0470	-0.8630	25.31	-0.11	-0.050			
0.1104	7062.48	4.0460	4.0461	-0.8639	25.32	-0.10	-0.050			
0.1112	7118.66	4.0450	4.0449	-0.8635	25.32	-0.10	-0.050			
0.1121	7173.56	4.0440	4.0440	-0.8625	25.32	-0.10	-0.050			
0.1129	7228.39	4.0430	4.0431	-0.8649	25.32	-0.10	-0.050			
0.1138	7283.07	4.0420	4.0420	-0.8651	25.32	-0.10	-0.050			
0.1146	7337.13	4.0410	4.0409	-0.8654	25.32	-0.10	-0.050			
0.1155	7392.53	4.0400	4.0401	-0.8687	25.31	-0.11	-0.050			
0.1164	7448.68	4.0390	4.0390	-0.8694	25.32	-0.10	-0.050			
0.1172	7503.56	4.0380	4.0381	-0.8689	25.32	-0.10	-0.050			
0.1181	7559.47	4.0370	4.0370	-0.8723	25.32	-0.10	-0.050			
0.1190	7615.58	4.0360	4.0360	-0.8750	25.32	-0.10	-0.050			
0.1199	7672.57	4.0350	4.0350	-0.8765	25.32	-0.10	-0.050	0.080	0.555	
0.1208	7728.59	4.0340	4.0339	-0.8749	25.32	-0.10	-0.050			
0.1216	7785.29	4.0330	4.0330	-0.8762	25.33	-0.09	-0.050			
0.1225	7841.61	4.0320	4.0318	-0.8765	25.33	-0.09	-0.050			
0.1234	7897.39	4.0310	4.0311	-0.8750	25.33	-0.09	-0.050			
0.1243	7954.05	4.0300	4.0300	-0.8734	25.32	-0.10	-0.050			
0.1252	8009.83	4.0290	4.0288	-0.8735	25.33	-0.09	-0.050			
0.1260	8066.23	4.0280	4.0278	-0.8788	25.33	-0.09	-0.050			
0.1269	8122.41	4.0270	4.0270	-0.8803	25.32	-0.10	-0.050			
0.1278	8178.81	4.0260	4.0263	-0.8781	25.33	-0.09	-0.050			
0.1287	8234.99	4.0250	4.0249	-0.8781	25.33	-0.09	-0.050			
0.1295	8290.93	4.0240	4.0239	-0.8774	25.34	-0.08	-0.050			
0.1304	8345.50	4.0230	4.0228	-0.8770	25.33	-0.09	-0.050			
0.1313	8400.88	4.0220	4.0218	-0.8791	25.33	-0.09	-0.050			
0.1321	8457.05	4.0210	4.0214	-0.8807	25.34	-0.08	-0.050			
0.1330	8513.41	4.0200	4.0195	-0.8828	25.34	-0.08	-0.050			
0.1339	8570.33	4.0190	4.0190	-0.8854	25.34	-0.08	-0.050			
0.1348	8626.78	4.0180	4.0179	-0.8874	25.35	-0.07	-0.050			
0.1357	8683.39	4.0170	4.0172	-0.8880	25.34	-0.08	-0.050			
0.1366	8741.01	4.0160	4.0159	-0.8919	25.34	-0.08	-0.050			
0.1375	8798.69	4.0150	4.0150	-0.8941	25.35	-0.07	-0.050			
0.1384	8856.29	4.0140	4.0138	-0.8974	25.34	-0.08	-0.050			
0.1393	8913.62	4.0130	4.0130	-0.8985	25.34	-0.08	-0.050			
0.1402	8971.72	4.0120	4.0121	-0.8963	25.34	-0.08	-0.050	0.298	0.650	
0.1411	9030.39	4.0110	4.0113	-0.8964	25.34	-0.08	-0.050			
0.1420	9087.54	4.0100	4.0100	-0.8989	25.34	-0.08	-0.050			
0.1429	9145.40	4.0090	4.0091	-0.8970	25.34	-0.08	-0.050			
0.1438	9202.38	4.0080	4.0083	-0.8944	25.34	-0.08	-0.050			
0.1447	9258.87	4.0070	4.0068	-0.8960	25.34	-0.08	-0.050			
0.1456	9316.90	4.0060	4.0061	-0.8988	25.33	-0.09	-0.050			
0.1465	9374.03	4.0050	4.0050	-0.9012	25.34	-0.08	-0.050			
0.1474	9431.36	4.0040	4.0040	-0.9022	25.34	-0.08	-0.050			
0.1483	9488.03	4.0030	4.0032	-0.9036	25.34	-0.08	-0.050			
0.1491	9545.51	4.0020	4.0019	-0.9052	25.34	-0.08	-0.050			
0.1500	9602.67	4.0010	4.0008	-0.9087	25.34	-0.08	-0.050			
0.1510	9661.10	4.0000	4.0000	-0.9138	25.34	-0.08	-0.050			
0.1519	9720.23	3.9990	3.9990	-0.9137	25.34	-0.08	-0.050			
0.1528	9779.47	3.9980	3.9979	-0.9162	25.35	-0.07	-0.050			
0.1537	9838.22	3.9970	3.9970	-0.9172	25.35	-0.07	-0.050			
0.1546	9897.46	3.9960	3.9960	-0.9185	25.34	-0.08	-0.050			
0.1556	9956.65	3.9950	3.9950	-0.9197	25.35	-0.07	-0.050			
0.1565	10016.09	3.9940	3.9938	-0.9215	25.34	-0.08	-0.050			
0.1574	10075.51	3.9930	3.9931	-0.9208	25.35	-0.07	-0.050			
0.1584	10136.31	3.9920	3.9920	-0.9247	25.36	-0.06	-0.050			
0.1593	10195.13	3.9910	3.9911	-0.9250	25.35	-0.07	-0.050			
0.1602	10253.44	3.9900	3.9901	-0.9243	25.36	-0.06	-0.050			
0.1611	10312.41	3.9890	3.9890	-0.9245	25.35	-0.07	-0.050			
0.1621	10372.31	3.9880	3.9878	-0.9253	25.35	-0.07	-0.050			
0.1630	10430.20	3.9870	3.9871	-0.9229	25.35	-0.07	-0.050			
0.1639	10489.43	3.9860	3.9861	-0.9243	25.35	-0.07	-0.050			
0.1648	10548.19	3.9850	3.9851	-0.9227	25.36	-0.06	-0.050			
0.1657	10607.12	3.9840	3.9840	-0.9245	25.35	-0.07	-0.050			
0.1667	10666.20	3.9830	3.9830	-0.9228	25.36	-0.06	-0.050			
0.1676	10725.42	3.9820	3.9820	-0.9242	25.36	-0.06	-0.050			
0.1685	10784.44	3.9810	3.9812	-0.9230	25.36	-0.06	-0.050			
0.1694	10843.72	3.9800	3.9805	-0.9264	25.36	-0.06	-0.050			
0.1704	10903.98	3.9790	3.9790	-0.9283	25.36	-0.06	-0.050			
0.1713	10962.90	3.9780	3.9780	-0.9332	25.36	-0.06	-0.050			
0.1722	11022.42	3.9770	3.9770	-0.9313	25.35	-0.07	-0.050			
0.1732	11082.65	3.9760	3.9759	-0.9323	25.35	-0.07	-0.050			
0.1741	11142.37	3.9750	3.9749	-0.9314	25.35	-0.07	-0.050			
0.1750	11202.46	3.9740	3.9741	-0.9304	25.34	-0.08	-0.050			
0.1760	11260.94	3.9730	3.9729	-0.9349	25.34	-0.08	-0.050			
0.1769	11320.95	3.9720	3.9720	-0.9349	25.35	-0.07	-0.050			
0.1778	11379.92	3.9710	3.9708	-0.9349	25.34	-0.08	-0.050			
0.1788	11440.15	3.9700	3.9701	-0.9379	25.34	-0.08	-0.050			
0.1797	11500.85	3.9690	3.9689	-0.9383	25.34	-0.08	-0.050	0.371	0.509	
0.1806	11560.63	3.9680	3.9682	-0.9395	25.34	-0.08	-0.050			
0.1816	11620.95	3.9670	3.9669	-0.9409	25.35	-0.07	-0.050			
0.1825	11681.16	3.9660	3.9658	-0.9421	25.34	-0.08	-0.050			
0.1835	11742.03	3.9650	3.9647	-0.9424	25.34	-0.08	-0.050			
0.1844	11802.27	3.9640	3.9638	-0.9436	25.33	-0.09	-0.050			
0.1854	11863.07	3.9630	3.9633	-0.9428	25.34	-0.08	-0.050			
0.1863	11923.34	3.9620	3.9619	-0.9438	25.34	-0.08	-0.050			
0.1873	11984.20	3.9610	3.9610	-0.9420	25.34	-0.08	-0.050			
0.1882	12043.88	3.9600	3.9600	-0.9419	25.34	-0.08	-0.050			
0.1891	12104.06	3.9590	3.9590	-0.9465	25.34	-0.08	-0.050			
0.1901	12164.22	3.9580	3.9579	-0.9449	25.34	-0.08	-0.050			
0.1910	12225.94	3.9570	3.9569	-0.9484	25.34	-0.08	-0.050			
0.1920	12286.37	3.9560	3.9560	-0.9505	25.34	-0.08	-0.050			
0.1929	12346.92	3.9550	3.9549	-0.9507	25.35	-0.07	-0.050			
0.1939	12406.41	3.9540	3.9541	-0.9527	25.34	-0.08	-0.050			
0.1948	12466.20	3.9530	3.9529	-0.9521	25.34	-0.08	-0.050			
0.1958	12528.31	3.9520	3.9520	-0.9559	25.35	-0.07	-0.050			
0.1967	12590.35	3.9510	3.9508	-0.9560	25.34	-0.08	-0.050			
0.1977	12651.57	3.9500	3.9501	-0.9567	25.34	-0.08	-0.050			
0.1986	12713.47	3.9490	3.9492	-0.9597	25.34	-0.08	-0.050			
0.1996	12775.44	3.9480	3.9480	-0.9600	25.34	-0.08	-0.050			
0.2006	12836.73	3.9470	3.9469	-0.9610	25.34	-0.08	-0.050	0.511	0.679	
0.2015	12898.35	3.9460	3.9460	-0.9607	25.34	-0.08	-0.050			
0.2025	12960.68	3.9450	3.9448	-0.9621	25.34	-0.08	-0.050			
0.2035	13022.51	3.9440	3.9440	-0.9620	25.34	-0.08	-0.050			
0.2044	13083.76	3.9430	3.9430	-0.9648	25.34	-0.08	-0.050			
0.2054	13146.00	3.9420	3.9422	-0.9639	25.34	-0.08	-0.050			
0.2064	13206.92	3.9410	3.9406	-0.9660	25.34	-0.08	-0.050			
0.2073	13267.21	3.9400	3.9401	-0.9687	25.33	-0.09	-0.050			
0.2083	13328.79	3.9390	3.9391	-0.9687	25.35	-0.07	-0.050			
0.2092	13391.11	3.9380	3.9380	-0.9709	25.34	-0.08	-0.050			
0.2102	13452.95	3.9370	3.9373	-0.9732	25.34	-0.08	-0.050			
0.2112	13514.81	3.9360	3.9357	-0.9731	25.35	-0.07	-0.050			
0.2122	13577.68	3.9350	3.9351	-0.9755	25.34	-0.08	-0.050			
0.2131	13640.12	3.9340	3.9340	-0.9756	25.34	-0.08	-0.050			
0.2141	13702.97	3.9330	3.9330	-0.9766	25.34	-0.08	-0.050			
0.2151	13767.33	3.9320	3.9317	-0.9788	25.34	-0.08	-0.050			
0.2161	13831.17	3.9310	3.9310	-0.9793	25.34	-0.08	-0.050			
0.2171	13894.28	3.9300	3.9302	-0.9753	25.35	-0.07	-0.050			
0.2181	13957.11	3.9290	3.9289	-0.9750	25.34	-0.08	-0.050			
0.2190	14019.08	3.9280	3.9279	-0.9776	25.34	-0.08	-0.050			
0.2200	14080.90	3.9270	3.9268	-0.9761	25.34	-0.08	-0.050	0.107	0.554	
0.2210	14143.94	3.9260	3.9260	-0.9768	25.33	-0.09	-0.050			
0.2220	14206.33	3.9250	3.9249	-0.9715	25.33	-0.09	-0.050			
0.2229	14268.07	3.9240	3.9240	-0.9730	25.33	-0.09	-0.050			
0.2239	14328.72	3.9230	3.9229	-0.9751	25.32	-0.10	-0.050			
0.2249	14391.20	3.9220	3.9219	-0.9756	25.32	-0.10	-0.050			
0.2258	14452.51	3.9210	3.9210	-0.9754	25.32	-0.10	-0.050			
0.2268	14515.07	3.9200	3.9198	-0.9740	25.32	-0.10	-0.050			
0.2278	14577.77	3.9190	3.9191	-0.9779	25.31	-0.11	-0.050			
0.2288	14640.44	3.9180	3.9183	-0.9818	25.30	-0.12	-0.050			
0.2297	14702.43	3.9170	3.9171	-0.9845	25.30	-0.12	-0.050			
0.2307	14765.86	3.9160	3.9160	-0.9878	25.30	-0.12	-0.050			
0.2317	14829.72	3.9150	3.9147	-0.9906	25.30	-0.12	-0.050			
0.2327	14893.56	3.9140	3.9140	-0.9928	25.30	-0.12	-0.050			
0.2337	14957.49	3.9130	3.9131	-0.9964	25.29	-0.13	-0.050			
0.2347	15021.66	3.9120	3.9121	-0.9990	25.28	-0.14	-0.050			
0.2357	15085.60	3.9110	3.9109	-1.0015	25.29	-0.13	-0.050			
0.2367	15150.83	3.9100	3.9096	-0.9992	25.28	-0.14	-0.050			
0.2377	15214.61	3.9090	3.9089	-0.9963	25.28	-0.14	-0.050			
0.2387	15277.74	3.9080	3.9080	-0.9978	25.28	-0.14	-0.050			
0.2397	15342.38	3.9070	3.9071	-1.0006	25.27	-0.15	-0.050	0.460	0.472	
0.2407	15407.02	3.9060	3.9062	-1.0007	25.28	-0.14	-0.050			
0.2417	15470.72	3.9050	3.9049	-1.0014	25.28	-0.14	-0.050			
0.2427	15533.73	3.9040	3.9041	-1.0005	25.27	-0.15	-0.050			
0.2437	15597.70	3.9030	3.9030	-1.0004	25.27	-0.15	-0.050			
0.2447	15662.99	3.9020	3.9018	-1.0033	25.27	-0.15	-0.050			
0.2457	15727.41	3.9010	3.9013	-1.0029	25.27	-0.15	-0.050			
0.2467	15791.25	3.9000	3.8999	-1.0026	25.28	-0.14	-0.050			
0.2477	15855.35	3.8990	3.8988	-0.9999	25.28	-0.14	-0.050			
0.2487	15919.49	3.8980	3.8981	-0.9982	25.28	-0.14	-0.050			
0.2497	15983.43	3.8970	3.8969	-0.9979	25.27	-0.15	-0.050			
0.2507	16047.06	3.8960	3.8958	-0.9998	25.27	-0.15	-0.050			
0.2517	16110.97	3.8950	3.8950	-1.0011	25.28	-0.14	-0.050			
0.2527	16175.41	3.8940	3.8941	-1.0012	25.27	-0.15	-0.050			
0.2537	16238.93	3.8930	3.8929	-1.0013	25.28	-0.14	-0.050			
0.2547	16303.03	3.8920	3.8920	-1.0030	25.28	-0.14	-0.050			
0.2557	16367.19	3.8910	3.8909	-1.0030	25.28	-0.14	-0.050			
0.2568	16432.49	3.8900	3.8901	-1.0063	25.27	-0.15	-0.050			
0.2578	16496.65	3.8890	3.8887	-1.0040	25.28	-0.14	-0.050			
0.2588	16560.11	3.8880	3.8881	-1.0019	25.27	-0.15	-0.050			
0.2598	16624.47	3.8870	3.8871	-1.0036	25.27	-0.15	-0.050			
0.2608	16688.42	3.8860	3.8863	-1.0040	25.28	-0.14	-0.050			
0.2618	16752.20	3.8850	3.8850	-1.0050	25.27	-0.15	-0.050			
0.2628	16816.89	3.8840	3.8838	-1.0051	25.28	-0.14	-0.050			
0.2638	16881.67	3.8830	3.8828	-1.0053	25.28	-0.14	-0.050			
0.2648	16946.86	3.8820	3.8821	-1.0045	25.28	-0.14	-0.050			
0.2658	17011.55	3.8810	3.8811	-1.0036	25.28	-0.14	-0.050			
0.2668	17075.39	3.8800	3.8801	-1.0043	25.29	-0.13	-0.050			
0.2678	17139.71	3.8790	3.8789	-1.0069	25.28	-0.14	-0.050			
0.2688	17202.62	3.8780	3.8781	-1.0096	25.29	-0.13	-0.050			
0.2698	17266.21	3.8770	3.8773	-1.0111	25.29	-0.13	-0.050			
0.2708	17329.90	3.8760	3.8761	-1.0130	25.29	-0.13	-0.050			
0.2718	17395.55	3.8750	3.8751	-1.0160	25.29	-0.13	-0.050			
0.2728	17460.87	3.8740	3.8738	-1.0170	25.29	-0.13	-0.050			
0.2738	17525.72	3.8730	3.8730	-1.0195	25.30	-0.12	-0.050			
0.2749	17590.84	3.8720	3.8716	-1.0234	25.30	-0.12	-0.050			
0.2759	17656.00	3.8710	3.8709	-1.0277	25.29	-0.13	-0.050			
0.2769	17722.30	3.8700	3.8700	-1.0312	25.30	-0.12	-0.050			
0.2780	17789.43	3.8690	3.8688	-1.0349	25.30	-0.12	-0.050			
0.2790	17855.63	3.8680	3.8683	-1.0357	25.30	-0.12	-0.050			
0.2801	17923.53	3.8670	3.8670	-1.0339	25.30	-0.12	-0.050			
0.2811	17990.43	3.8660	3.8661	-1.0358	25.30	-0.12	-0.050			
0.2821	18057.40	3.8650	3.8647	-1.0372	25.31	-0.11	-0.050			
0.2832	18124.53	3.8640	3.8637	-1.0356	25.30	-0.12	-0.050			
0.2843	18192.13	3.8630	3.8629	-1.0361	25.30	-0.12	-0.050			
0.2853	18258.72	3.8620	3.8619	-1.0357	25.31	-0.11	-0.050			
0.2863	18324.09	3.8610	3.8613	-1.0335	25.30	-0.12	-0.050			
0.2873	18389.50	3.8600	3.8600	-1.0304	25.30	-0.12	-0.050			
0.2883	18454.03	3.8590	3.8588	-1.0313	25.31	-0.11	-0.050			
0.2894	18519.72	3.8580	3.8581	-1.0276	25.31	-0.11	-0.050			
0.2904	18585.32	3.8570	3.8566	-1.0321	25.31	-0.11	-0.050			
0.2914	18651.58	3.8560	3.8562	-1.0331	25.31	-0.11	-0.050			
0.2925	18718.18	3.8550	3.8550	-1.0317	25.31	-0.11	-0.050			
0.2935	18784.40	3.8540	3.8539	-1.0301	25.31	-0.11	-0.050			
0.2945	18849.58	3.8530	3.8529	-1.0283	25.31	-0.11	-0.050			
0.2955	18914.69	3.8520	3.8520	-1.0289	25.32	-0.10	-0.050			
0.2966	18980.07	3.8510	3.8510	-1.0322	25.31	-0.11	-0.050			
0.2976	19047.17	3.8500	3.8500	-1.0351	25.30	-0.12	-0.050			
0.2986	19113.19	3.8490	3.8492	-1.0390	25.31	-0.11	-0.050			
0.2997	19179.81	3.8480	3.8478	-1.0405	25.30	-0.12	-0.050			
0.3007	19246.55	3.8470	3.8472	-1.0431	25.31	-0.11	-0.050			
0.3018	19312.89	3.8460	3.8459	-1.0450	25.31	-0.11	-0.050			
0.3028	19379.82	3.8450	3.8449	-1.0492	25.31	-0.11	-0.050			
0.3039	19447.34	3.8440	3.8440	-1.0496	25.31	-0.11	-0.050			
0.3049	19514.61	3.8430	3.8429	-1.0512	25.31	-0.11	-0.050			
0.3060	19581.16	3.8420	3.8421	-1.0519	25.31	-0.11	-0.050			
0.3070	19647.95	3.8410	3.8412	-1.0549	25.31	-0.11	-0.050			
0.3081	19716.31	3.8400	3.8399	-1.0575	25.31	-0.11	-0.050			
0.3091	19784.23	3.8390	3.8391	-1.0573	25.31	-0.11	-0.050			
0.3102	19852.06	3.8380	3.8381	-1.0615	25.31	-0.11	-0.050			
0.3113	19920.31	3.8370	3.8371	-1.0631	25.31	-0.11	-0.050			
0.3124	19990.45	3.8360	3.8360	-1.0659	25.32	-0.10	-0.050			
0.3134	20058.85	3.8350	3.8351	-1.0659	25.31	-0.11	-0.050			
0.3145	20127.28	3.8340	3.8339	-1.0666	25.31	-0.11	-0.050			
0.3155	20194.87	3.8330	3.8331	-1.0666	25.31	-0.11	-0.050			
0.3166	20262.95	3.8320	3.8319	-1.0654	25.31	-0.11	-0.050			
0.3177	20330.77	3.8310	3.8311	-1.0668	25.31	-0.11	-0.050			
0.3187	20399.62	3.8300	3.8299	-1.0693	25.31	-0.11	-0.050			
0.3198	20466.95	3.8290	3.8290	-1.0703	25.31	-0.11	-0.050	0.501	0.540	
0.3209	20536.31	3.8280	3.8279	-1.0700	25.32	-0.10	-0.050			
0.3220	20604.94	3.8270	3.8268	-1.0700	25.31	-0.11	-0.050			
0.3230	20672.51	3.8260	3.8257	-1.0733	25.32	-0.10	-0.050			
0.3241	20741.07	3.8250	3.8251	-1.0760	25.32	-0.10	-0.050			
0.3252	20810.60	3.8240	3.8240	-1.0775	25.32	-0.10	-0.050			
0.3262	20879.98	3.8230	3.8230	-1.0763	25.32	-0.10	-0.050			
0.3273	20949.02	3.8220	3.8221	-1.0753	25.32	-0.10	-0.050			
0.3284	21018.20	3.8210	3.8210	-1.0754	25.33	-0.09	-0.050			
0.3295	21087.25	3.8200	3.8201	-1.0771	25.32	-0.10	-0.050			
0.3306	21156.42	3.8190	3.8191	-1.0783	25.32	-0.10	-0.050			
0.3316	21225.01	3.8180	3.8178	-1.0793	25.33	-0.09	-0.050			
0.3327	21294.78	3.8170	3.8170	-1.0800	25.32	-0.10	-0.050			
0.3338	21363.75	3.8160	3.8162	-1.0835	25.32	-0.10	-0.050			
0.3349	21432.72	3.8150	3.8152	-1.0822	25.32	-0.10	-0.050			
0.3360	21502.56	3.8140	3.8139	-1.0801	25.32	-0.10	-0.050			
0.3370	21571.09	3.8130	3.8128	-1.0814	25.33	-0.09	-0.050			
0.3381	21640.41	3.8120	3.8119	-1.0819	25.33	-0.09	-0.050			
0.3392	21709.02	3.8110	3.8108	-1.0814	25.32	-0.10	-0.050			
0.3403	21777.28	3.8100	3.8104	-1.0857	25.33	-0.09	-0.050	0.400	0.473	
0.3414	21847.25	3.8090	3.8091	-1.0856	25.33	-0.09	-0.050			
0.3425	21917.16	3.8080	3.8080	-1.0887	25.34	-0.08	-0.050			
0.3435	21986.74	3.8070	3.8069	-1.0887	25.33	-0.09	-0.050			
0.3446	22056.55	3.8060	3.8060	-1.0855	25.32	-0.10	-0.050			
0.3457	22127.70	3.8050	3.8049	-1.0865	25.33	-0.09	-0.050			
0.3469	22198.55	3.8040	3.8038	-1.0878	25.33	-0.09	-0.050			
0.3479	22267.75	3.8030	3.8030	-1.0877	25.34	-0.08	-0.050			
0.3490	22337.11	3.8020	3.8019	-1.0882	25.33	-0.09	-0.050			
0.3501	22406.37	3.8010	3.8012	-1.0879	25.34	-0.08	-0.050			
0.3512	22475.53	3.8000	3.8003	-1.0867	25.33	-0.09	-0.050			
0.3523	22544.92	3.7990	3.7988	-1.0878	25.33	-0.09	-0.050			
0.3534	22614.72	3.7980	3.7982	-1.0862	25.34	-0.08	-0.050			
0.3544	22684.55	3.7970	3.7970	-1.0865	25.34	-0.08	-0.050			
0.3555	22754.09	3.7960	3.7960	-1.0831	25.34	-0.08	-0.050			
0.3566	22824.12	3.7950	3.7950	-1.0829	25.33	-0.09	-0.050			
0.3577	22894.38	3.7940	3.7939	-1.0797	25.33	-0.09	-0.050			
0.3588	22962.83	3.7930	3.7930	-1.0749	25.34	-0.08	-0.050			
0.3599	23032.45	3.7920	3.7920	-1.0708	25.34	-0.08	-0.050	0.146	0.538	
0.3609	23100.69	3.7910	3.7910	-1.0682	25.34	-0.08	-0.050			
0.3620	23168.92	3.7900	3.7901	-1.0636	25.34	-0.08	-0.050			
0.3631	23237.77	3.7890	3.7890	-1.0592	25.34	-0.08	-0.050			
0.3642	23307.68	3.7880	3.7880	-1.0512	25.34	-0.08	-0.050			
0.3653	23376.19	3.7870	3.7872	-1.0436	25.34	-0.08	-0.050			
0.3663	23443.47	3.7860	3.7860	-1.0375	25.34	-0.08	-0.050			
0.3673	23509.55	3.7850	3.7846	-1.0303	25.33	-0.09	-0.050			
0.3684	23575.08	3.7840	3.7840	-1.0210	25.33	-0.09	-0.050			
0.3694	23639.21	3.7830	3.7831	-1.0100	25.33	-0.09	-0.050			
0.3704	23703.76	3.7820	3.7820	-1.0000	25.34	-0.08	-0.050			
0.3714	23767.09	3.7810	3.7811	-0.9919	25.34	-0.08	-0.050			
0.3724	23830.87	3.7800	3.7800	-0.9817	25.33	-0.09	-0.050			
0.3733	23893.07	3.7790	3.7790	-0.9729	25.34	-0.08	-0.050			
0.3743	23955.54	3.7780	3.7777	-0.9641	25.34	-0.08	-0.050			
0.3753	24017.01	3.7770	3.7770	-0.9530	25.34	-0.08	-0.050			
0.3762	24077.53	3.7760	3.7763	-0.9447	25.33	-0.09	-0.050			
0.3771	24137.33	3.7750	3.7755	-0.9351	25.34	-0.08	-0.050			
0.3781	24196.47	3.7740	3.7740	-0.9245	25.33	-0.09	-0.050			
0.3790	24255.66	3.7730	3.7731	-0.9138	25.34	-0.08	-0.050			
0.3799	24315.04	3.7720	3.7720	-0.9036	25.34	-0.08	-0.050	0.363	0.457	
0.3808	24372.35	3.7710	3.7712	-0.8918	25.34	-0.08	-0.050			
0.3817	24430.18	3.7700	3.7698	-0.8803	25.34	-0.08	-0.050			
0.3826	24487.36	3.7690	3.7691	-0.8678	25.35	-0.07	-0.050			
0.3835	24542.63	3.7680	3.7677	-0.8597	25.35	-0.07	-0.050			
0.3843	24597.34	3.7670	3.7669	-0.8475	25.35	-0.07	-0.050			
0.3852	24650.06	3.7660	3.7662	-0.8308	25.35	-0.07	-0.050			
0.3860	24702.73	3.7650	3.7650	-0.8186	25.34	-0.08	-0.050			
0.3868	24755.24	3.7640	3.7640	-0.8085	25.34	-0.08	-0.050			
0.3876	24806.52	3.7630	3.7629	-0.7965	25.34	-0.08	-0.050			
0.3884	24857.41	3.7620	3.7622	-0.7850	25.35	-0.07	-0.050			
0.3892	24906.30	3.7610	3.7610	-0.7730	25.34	-0.08	-0.050			
0.3899	24955.07	3.7600	3.7597	-0.7612	25.34	-0.08	-0.050			
0.3907	25003.36	3.7590	3.7588	-0.7489	25.34	-0.08	-0.050			
0.3914	25051.13	3.7580	3.7583	-0.7389	25.34	-0.08	-0.050			
0.3922	25097.68	3.7570	3.7570	-0.7284	25.34	-0.08	-0.050			
0.3928	25142.25	3.7560	3.7561	-0.7187	25.34	-0.08	-0.050			
0.3936	25187.44	3.7550	3.7549	-0.7120	25.35	-0.07	-0.050			
0.3943	25233.05	3.7540	3.7540	-0.7027	25.34	-0.08	-0.050			
0.3950	25277.56	3.7530	3.7530	-0.6968	25.35	-0.07	-0.050			
0.3956	25321.56	3.7520	3.7519	-0.6886	25.34	-0.08	-0.050			
0.3963	25365.52	3.7510	3.7511	-0.6842	25.33	-0.09	-0.050			
0.3970	25408.52	3.7500	3.7500	-0.6774	25.34	-0.08	-0.050			
0.3977	25451.63	3.7490	3.7490	-0.6717	25.35	-0.07	-0.050			
0.3983	25492.80	3.7480	3.7480	-0.6629	25.35	-0.07	-0.050			
0.3990	25534.20	3.7470	3.7468	-0.6623	25.35	-0.07	-0.050			
0.3996	25576.81	3.7460	3.7458	-0.6599	25.34	-0.08	-0.050			
0.4003	25618.90	3.7450	3.7451	-0.6569	25.34	-0.08	-0.050	0.304	0.529	
0.4009	25659.37	3.7440	3.7438	-0.6572	25.33	-0.09	-0.050			
0.4016	25700.49	3.7430	3.7430	-0.6581	25.33	-0.09	-0.050			
0.4022	25742.24	3.7420	3.7420	-0.6588	25.33	-0.09	-0.050			
0.4029	25783.42	3.7410	3.7412	-0.6591	25.34	-0.08	-0.050			
0.4035	25825.61	3.7400	3.7400	-0.6602	25.34	-0.08	-0.050			
0.4042	25868.06	3.7390	3.7389	-0.6620	25.34	-0.08	-0.050			
0.4048	25909.67	3.7380	3.7377	-0.6657	25.34	-0.08	-0.050			
0.4055	25951.62	3.7370	3.7371	-0.6683	25.34	-0.08	-0.050			
0.4062	25993.64	3.7360	3.7361	-0.6720	25.34	-0.08	-0.050			
0.4068	26035.57	3.7350	3.7348	-0.6785	25.35	-0.07	-0.050			
0.4075	26079.36	3.7340	3.7339	-0.6862	25.34	-0.08	-0.050			
0.4082	26123.93	3.7330	3.7331	-0.6937	25.34	-0.08	-0.050			
0.4089	26166.43	3.7320	3.7320	-0.7047	25.34	-0.08	-0.050			
0.4095	26210.65	3.7310	3.7311	-0.7179	25.34	-0.08	-0.050			
0.4103	26256.02	3.7300	3.7299	-0.7285	25.34	-0.08	-0.050			
0.4110	26302.95	3.7290	3.7290	-0.7398	25.34	-0.08	-0.050			
0.4117	26349.87	3.7280	3.7280	-0.7532	25.33	-0.09	-0.050			
0.4125	26396.90	3.7270	3.7269	-0.7643	25.32	-0.10	-0.050			
0.4132	26445.50	3.7260	3.7257	-0.7807	25.33	-0.09	-0.050			
0.4140	26495.40	3.7250	3.7253	-0.7999	25.33	-0.09	-0.050			
0.4148	26546.69	3.7240	3.7239	-0.8130	25.33	-0.09	-0.050			
0.4156	26597.76	3.7230	3.7229	-0.8332	25.32	-0.10	-0.050			
0.4164	26651.39	3.7220	3.7221	-0.8546	25.33	-0.09	-0.050			
0.4173	26706.06	3.7210	3.7212	-0.8784	25.32	-0.10	-0.050			
0.4182	26762.58	3.7200	3.7203	-0.9006	25.32	-0.10	-0.050			
0.4191	26820.59	3.7190	3.7188	-0.9245	25.32	-0.10	-0.050			
0.4200	26879.27	3.7180	3.7183	-0.9465	25.32	-0.10	-0.050	0.436	0.505	
0.4210	26941.04	3.7170	3.7169	-0.9691	25.31	-0.11	-0.050			
0.4219	27004.35	3.7160	3.7161	-0.9904	25.31	-0.11	-0.050			
0.4229	27067.82	3.7150	3.7151	-1.0147	25.32	-0.10	-0.050			
0.4240	27134.16	3.7140	3.7137	-1.0356	25.31	-0.11	-0.050			
0.4250	27201.45	3.7130	3.7133	-1.0605	25.31	-0.11	-0.050			
0.4261	27268.85	3.7120	3.7120	-1.0839	25.31	-0.11	-0.050			
0.4272	27338.25	3.7110	3.7112	-1.1131	25.31	-0.11	-0.050			
0.4283	27410.50	3.7100	3.7101	-1.1396	25.31	-0.11	-0.050			
0.4294	27484.00	3.7090	3.7091	-1.1675	25.30	-0.12	-0.050			
0.4306	27558.87	3.7080	3.7081	-1.1943	25.31	-0.11	-0.050			
0.4318	27637.31	3.7070	3.7069	-1.2204	25.30	-0.12	-0.050			
0.4331	27716.76	3.7060	3.7058	-1.2425	25.30	-0.12	-0.050			
0.4343	27796.70	3.7050	3.7050	-1.2685	25.30	-0.12	-0.050			
0.4356	27878.75	3.7040	3.7040	-1.2965	25.30	-0.12	-0.050			
0.4369	27961.90	3.7030	3.7031	-1.3195	25.29	-0.13	-0.050			
0.4383	28048.32	3.7020	3.7022	-1.3435	25.30	-0.12	-0.050			
0.4396	28134.84	3.7010	3.7011	-1.3690	25.29	-0.13	-0.050			
0.4410	28223.74	3.7000	3.7000	-1.3930	25.28	-0.14	-0.050	0.326	0.504	
0.4424	28313.80	3.6990	3.6991	-1.4211	25.29	-0.13	-0.050			
0.4438	28406.09	3.6980	3.6981	-1.4472	25.29	-0.13	-0.050			
0.4453	28501.32	3.6970	3.6970	-1.4706	25.28	-0.14	-0.050			
0.4468	28596.69	3.6960	3.6958	-1.4918	25.29	-0.13	-0.050			
0.4483	28693.91	3.6950	3.6953	-1.5070	25.28	-0.14	-0.050			
0.4498	28790.14	3.6940	3.6941	-1.5304	25.27	-0.15	-0.050			
0.4514	28889.10	3.6930	3.6931	-1.5500	25.27	-0.15	-0.050			
0.4529	28988.77	3.6920	3.6920	-1.5676	25.26	-0.16	-0.050			
0.4545	29089.48	3.6910	3.6908	-1.5886	25.27	-0.15	-0.050			
0.4561	29191.67	3.6900	3.6900	-1.6119	25.27	-0.15	-0.050			
0.4578	29296.10	3.6890	3.6892	-1.6289	25.28	-0.14	-0.050			
0.4594	29401.10	3.6880	3.6881	-1.6499	25.26	-0.16	-0.050			
0.4611	29507.62	3.6870	3.6868	-1.6765	25.26	-0.16	-0.050	0.294	0.534	
0.4627	29614.27	3.6860	3.6856	-1.6982	25.26	-0.16	-0.050			
0.4644	29722.45	3.6850	3.6848	-1.7220	25.26	-0.16	-0.050			
0.4661	29832.67	3.6840	3.6841	-1.7422	25.26	-0.16	-0.050			
0.4679	29944.25	3.6830	3.6829	-1.7688	25.26	-0.16	-0.050			
0.4697	30058.60	3.6820	3.6817	-1.7897	25.25	-0.17	-0.050			
0.4715	30173.85	3.6810	3.6811	-1.8118	25.24	-0.18	-0.050			
0.4733	30290.11	3.6800	3.6799	-1.8373	25.24	-0.18	-0.050			
0.4751	30408.83	3.6790	3.6788	-1.8631	25.23	-0.19	-0.050			
0.4770	30529.52	3.6780	3.6779	-1.8885	25.22	-0.20	-0.050			
0.4789	30651.11	3.6770	3.6770	-1.9176	25.22	-0.20	-0.050			
0.4809	30774.92	3.6760	3.6761	-1.9416	25.21	-0.21	-0.050	0.334	0.587	
0.4828	30898.35	3.6750	3.6749	-1.9664	25.21	-0.21	-0.050			
0.4848	31025.72	3.6740	3.6739	-1.9900	25.20	-0.22	-0.050			
0.4868	31155.39	3.6730	3.6730	-2.0135	25.19	-0.23	-0.050			
0.4888	31286.20	3.6720	3.6721	-2.0329	25.19	-0.23	-0.050			
0.4909	31417.72	3.6710	3.6710	-2.0547	25.19	-0.23	-0.050			
0.4930	31550.74	3.6700	3.6701	-2.0762	25.19	-0.23	-0.050			
0.4951	31683.93	3.6690	3.6689	-2.0993	25.18	-0.24	-0.050			
0.4971	31817.02	3.6680	3.6681	-2.1216	25.19	-0.23	-0.050			
0.4993	31952.30	3.6670	3.6673	-2.1452	25.18	-0.24	-0.050			
0.5014	32090.36	3.6660	3.6661	-2.1701	25.19	-0.23	-0.050	0.413	0.482	
0.5036	32230.64	3.6650	3.6649	-2.1931	25.18	-0.24	-0.050			
0.5058	32370.78	3.6640	3.6641	-2.2217	25.19	-0.23	-0.050			
0.5080	32511.61	3.6630	3.6630	-2.2488	25.19	-0.23	-0.050			
0.5102	32655.10	3.6620	3.6621	-2.2837	25.19	-0.23	-0.050			
0.5125	32800.65	3.6610	3.6609	-2.3154	25.20	-0.22	-0.050			
0.5148	32947.91	3.6600	3.6599	-2.3481	25.19	-0.23	-0.050			
0.5172	33099.07	3.6590	3.6589	-2.3798	25.19	-0.23	-0.050			
0.5196	33251.91	3.6580	3.6581	-2.4129	25.18	-0.24	-0.050	0.388	0.469	
0.5220	33407.68	3.6570	3.6570	-2.4431	25.19	-0.23	-0.050			
0.5245	33566.56	3.6560	3.6560	-2.4797	25.19	-0.23	-0.050			
0.5270	33727.67	3.6550	3.6549	-2.5122	25.19	-0.23	-0.050			
0.5296	33891.34	3.6540	3.6540	-2.5471	25.19	-0.23	-0.050			
0.5321	34055.74	3.6530	3.6531	-2.5821	25.19	-0.23	-0.050			
0.5347	34222.40	3.6520	3.6521	-2.6171	25.20	-0.22	-0.050			
0.5374	34390.71	3.6510	3.6510	-2.6485	25.19	-0.23	-0.050			
0.5400	34559.37	3.6500	3.6500	-2.6852	25.19	-0.23	-0.050	0.611	0.576	
0.5427	34731.83	3.6490	3.6492	-2.7214	25.19	-0.23	-0.050			
0.5454	34907.92	3.6480	3.6482	-2.7579	25.20	-0.22	-0.050			
0.5482	35085.21	3.6470	3.6470	-2.7973	25.20	-0.22	-0.050			
0.5510	35263.83	3.6460	3.6460	-2.8343	25.20	-0.22	-0.050			
0.5538	35444.98	3.6450	3.6448	-2.8739	25.21	-0.21	-0.050			
0.5567	35628.43	3.6440	3.6438	-2.9088	25.21	-0.21	-0.050			
0.5596	35814.78	3.6430	3.6431	-2.9544	25.22	-0.20	-0.050			
0.5626	36006.40	3.6420	3.6422	-2.9941	25.22	-0.20	-0.050			
0.5657	36201.82	3.6410	3.6411	-3.0336	25.23	-0.19	-0.050			
0.5687	36398.46	3.6400	3.6402	-3.0705	25.23	-0.19	-0.050			
0.5718	36598.39	3.6390	3.6391	-3.1104	25.24	-0.18	-0.050			
0.5750	36799.08	3.6380	3.6378	-3.1307	25.24	-0.18	-0.050			
0.5782	37002.94	3.6370	3.6371	-3.1639	25.25	-0.17	-0.050			
0.5813	37204.10	3.6360	3.6358	-3.1976	25.25	-0.17	-0.050			
0.5845	37409.43	3.6350	3.6351	-3.2334	25.26	-0.16	-0.050			
0.5877	37614.74	3.6340	3.6342	-3.2659	25.26	-0.16	-0.050			
0.5910	37825.72	3.6330	3.6329	-3.3014	25.27	-0.15	-0.050			
0.5943	38037.85	3.6320	3.6320	-3.3321	25.28	-0.14	-0.050			
0.5977	38251.39	3.6310	3.6311	-3.3630	25.28	-0.14	-0.050			
0.6011	38468.92	3.6300	3.6300	-3.3935	25.28	-0.14	-0.050			
0.6045	38690.29	3.6290	3.6291	-3.4109	25.29	-0.13	-0.050			
0.6080	38911.27	3.6280	3.6281	-3.4335	25.29	-0.13	-0.050			
0.6115	39135.24	3.6270	3.6274	-3.4487	25.29	-0.13	-0.050			
0.6150	39359.97	3.6260	3.6260	-3.4505	25.29	-0.13	-0.050			
0.6185	39582.32	3.6250	3.6250	-3.4628	25.29	-0.13	-0.050			
0.6220	39805.32	3.6240	3.6239	-3.4601	25.30	-0.12	-0.050	0.178	0.601	
0.6254	40024.84	3.6230	3.6230	-3.4532	25.30	-0.12	-0.050			
0.6288	40243.94	3.6220	3.6220	-3.4458	25.30	-0.12	-0.050			
0.6322	40463.79	3.6210	3.6209	-3.4452	25.31	-0.11	-0.050			
0.6357	40685.72	3.6200	3.6197	-3.4392	25.31	-0.11	-0.050			
0.6392	40906.32	3.6190	3.6189	-3.4329	25.30	-0.12	-0.050	0.185	0.503	
0.6426	41127.07	3.6180	3.6180	-3.4196	25.30	-0.12	-0.050			
0.6461	41349.45	3.6170	3.6170	-3.3970	25.29	-0.13	-0.050			
0.6496	41572.19	3.6160	3.6158	-3.3651	25.30	-0.12	-0.050			
0.6530	41794.53	3.6150	3.6148	-3.3171	25.29	-0.13	-0.050			
0.6564	42012.47	3.6140	3.6138	-3.2541	25.29	-0.13	-0.050			
0.6597	42221.79	3.6130	3.6132	-3.1877	25.29	-0.13	-0.050	0.207	0.676	
0.6629	42424.39	3.6120	3.6121	-3.1128	25.29	-0.13	-0.050			
0.6660	42621.59	3.6110	3.6112	-3.0241	25.29	-0.13	-0.050			
0.6690	42815.03	3.6100	3.6101	-2.9472	25.29	-0.13	-0.050			
0.6719	42998.71	3.6090	3.6088	-2.8518	25.29	-0.13	-0.050			
0.6746	43174.42	3.6080	3.6081	-2.7592	25.29	-0.13	-0.050			
0.6773	43345.70	3.6070	3.6070	-2.6720	25.29	-0.13	-0.050			
0.6798	43509.98	3.6060	3.6061	-2.5885	25.30	-0.12	-0.050	0.394	0.555	
0.6823	43669.02	3.6050	3.6050	-2.5140	25.30	-0.12	-0.050			
0.6847	43820.96	3.6040	3.6041	-2.4413	25.30	-0.12	-0.050			
0.6872	43978.41	3.6030	3.6030	-2.3758	25.30	-0.12	-0.050			
0.6894	44120.80	3.6020	3.6018	-2.3140	25.31	-0.11	-0.050			
0.6916	44261.06	3.6010	3.6006	-2.2623	25.31	-0.11	-0.050			
0.6937	44397.47	3.6000	3.6001	-2.2304	25.31	-0.11	-0.050			
0.6959	44534.60	3.5990	3.5990	-2.2027	25.31	-0.11	-0.050			
0.6980	44669.66	3.5980	3.5980	-2.1722	25.31	-0.11	-0.050			
0.7000	44802.77	3.5970	3.5969	-2.1544	25.32	-0.10	-0.050			
0.7021	44937.00	3.5960	3.5961	-2.1323	25.32	-0.10	-0.050			
0.7042	45070.42	3.5950	3.5950	-2.1162	25.32	-0.10	-0.050			
0.7063	45203.51	3.5940	3.5939	-2.1025	25.33	-0.09	-0.050			
0.7084	45335.95	3.5930	3.5931	-2.0960	25.33	-0.09	-0.050			
0.7105	45471.10	3.5920	3.5919	-2.0945	25.34	-0.08	-0.050			
0.7126	45604.82	3.5910	3.5908	-2.0887	25.34	-0.08	-0.050			
0.7147	45739.57	3.5900	3.5903	-2.0813	25.34	-0.08	-0.050			
0.7168	45875.76	3.5890	3.5892	-2.0763	25.36	-0.06	-0.050			
0.7189	46011.63	3.5880	3.5878	-2.0611	25.36	-0.06	-0.050			
0.7210	46146.25	3.5870	3.5869	-2.0493	25.36	-0.06	-0.050	0.434	0.711	
0.7231	46279.40	3.5860	3.5859	-2.0312	25.36	-0.06	-0.050			
0.7252	46411.38	3.5850	3.5850	-2.0097	25.35	-0.07	-0.050			
0.7272	46540.23	3.5840	3.5839	-1.9864	25.36	-0.06	-0.050			
0.7292	46666.82	3.5830	3.5832	-1.9592	25.36	-0.06	-0.050			
0.7311	46792.36	3.5820	3.5820	-1.9261	25.36	-0.06	-0.050			
0.7331	46916.17	3.5810	3.5812	-1.8973	25.37	-0.05	-0.050			
0.7349	47035.55	3.5800	3.5800	-1.8641	25.37	-0.05	-0.050			
0.7368	47155.22	3.5790	3.5788	-1.8397	25.37	-0.05	-0.050			
0.7386	47273.34	3.5780	3.5780	-1.8123	25.38	-0.04	-0.050			
0.7404	47388.57	3.5770	3.5771	-1.7824	25.37	-0.05	-0.050			
0.7422	47500.96	3.5760	3.5760	-1.7550	25.38	-0.04	-0.050			
0.7439	47608.42	3.5750	3.5751	-1.7321	25.39	-0.03	-0.050			
0.7456	47715.76	3.5740	3.5742	-1.7083	25.38	-0.04	-0.050			
0.7472	47819.74	3.5730	3.5731	-1.6887	25.39	-0.03	-0.050			
0.7488	47925.08	3.5720	3.5720	-1.6737	25.39	-0.03	-0.050			
0.7505	48029.60	3.5710	3.5710	-1.6574	25.39	-0.03	-0.050			
0.7521	48134.12	3.5700	3.5700	-1.6517	25.39	-0.03	-0.050			
0.7537	48236.99	3.5690	3.5693	-1.6497	25.39	-0.03	-0.050			
0.7553	48340.19	3.5680	3.5679	-1.6446	25.40	-0.02	-0.050			
0.7569	48442.80	3.5670	3.5668	-1.6449	25.40	-0.02	-0.050			
0.7586	48547.43	3.5660	3.5658	-1.6481	25.40	-0.02	-0.050			
0.7602	48650.13	3.5650	3.5653	-1.6554	25.40	-0.02	-0.050	0.343	0.495	
0.7618	48754.69	3.5640	3.5639	-1.6671	25.40	-0.02	-0.050			
0.7635	48862.10	3.5630	3.5632	-1.6784	25.40	-0.02	-0.050			
0.7652	48970.92	3.5620	3.5621	-1.6858	25.40	-0.02	-0.050			
0.7669	49080.10	3.5610	3.5608	-1.6910	25.39	-0.03	-0.050			
0.7686	49190.36	3.5600	3.5599	-1.6938	25.40	-0.02	-0.050			
0.7703	49300.43	3.5590	3.5589	-1.6977	25.40	-0.02	-0.050			
0.7721	49412.87	3.5580	3.5578	-1.6954	25.40	-0.02	-0.050			
0.7738	49523.60	3.5570	3.5571	-1.6890	25.40	-0.02	-0.050			
0.7755	49633.98	3.5560	3.5559	-1.6808	25.40	-0.02	-0.050			
0.7772	49743.38	3.5550	3.5549	-1.6694	25.40	-0.02	-0.050			
0.7790	49853.69	3.5540	3.5543	-1.6622	25.40	-0.02	-0.050			
0.7807	49962.03	3.5530	3.5530	-1.6430	25.41	-0.01	-0.050	0.233	0.620	
0.7823	50069.88	3.5520	3.5521	-1.6230	25.41	-0.01	-0.050			
0.7840	50175.40	3.5510	3.5509	-1.5972	25.41	-0.01	-0.050			
0.7856	50277.94	3.5500	3.5500	-1.5695	25.41	-0.01	-0.050			
0.7872	50377.65	3.5490	3.5491	-1.5414	25.41	-0.01	-0.050			
0.7887	50477.42	3.5480	3.5480	-1.5065	25.41	-0.01	-0.050			
0.7902	50572.83	3.5470	3.5467	-1.4721	25.41	-0.01	-0.050			
0.7917	50665.80	3.5460	3.5461	-1.4352	25.41	-0.01	-0.050			
0.7931	50756.58	3.5450	3.5451	-1.3970	25.42	-0.00	-0.050			
0.7945	50845.47	3.5440	3.5441	-1.3657	25.42	0.00	-0.050			
0.7958	50931.04	3.5430	3.5429	-1.3331	25.43	0.01	-0.050			
0.7971	51016.10	3.5420	3.5419	-1.3020	25.43	0.01	-0.050			
0.7984	51098.19	3.5410	3.5411	-1.2685	25.42	0.00	-0.050			
0.7997	51178.04	3.5400	3.5400	-1.2352	25.43	0.01	-0.050			
0.8009	51255.34	3.5390	3.5394	-1.2016	25.42	0.00	-0.050	0.028	0.582	
0.8020	51330.16	3.5380	3.5380	-1.1726	25.42	0.00	-0.050			
0.8032	51403.76	3.5370	3.5369	-1.1401	25.42	0.00	-0.050			
0.8043	51473.40	3.5360	3.5359	-1.1135	25.42	0.00	-0.050			
0.8053	51541.35	3.5350	3.5349	-1.0839	25.42	0.00	-0.050			
0.8064	51609.15	3.5340	3.5340	-1.0608	25.42	-0.00	-0.050			
0.8074	51674.80	3.5330	3.5331	-1.0448	25.41	-0.01	-0.050			
0.8084	51739.46	3.5320	3.5321	-1.0241	25.41	-0.01	-0.050			
0.8094	51801.11	3.5310	3.5310	-1.0073	25.41	-0.01	-0.050			
0.8104	51863.20	3.5300	3.5301	-1.0015	25.42	-0.00	-0.050			
0.8113	51923.88	3.5290	3.5289	-0.9940	25.41	-0.01	-0.050			
0.8123	51986.59	3.5280	3.5280	-0.9903	25.41	-0.01	-0.050			
0.8132	52046.80	3.5270	3.5269	-0.9845	25.40	-0.02	-0.050			
0.8142	52107.73	3.5260	3.5261	-0.9872	25.41	-0.01	-0.050			
0.8151	52169.23	3.5250	3.5249	-0.9857	25.40	-0.02	-0.050			
0.8161	52230.81	3.5240	3.5238	-0.9826	25.40	-0.02	-0.050			
0.8171	52292.89	3.5230	3.5232	-0.9857	25.41	-0.01	-0.050			
0.8181	52357.47	3.5220	3.5219	-0.9901	25.40	-0.02	-0.050			
0.8191	52421.24	3.5210	3.5209	-0.9955	25.41	-0.01	-0.050			
0.8201	52485.84	3.5200	3.5204	-0.9996	25.41	-0.01	-0.050			
0.8211	52551.44	3.5190	3.5191	-1.0015	25.40	-0.02	-0.050			
0.8221	52616.94	3.5180	3.5179	-1.0016	25.40	-0.02	-0.050			
0.8232	52683.13	3.5170	3.5168	-1.0013	25.40	-0.02	-0.050			
0.8242	52748.82	3.5160	3.5161	-0.9947	25.40	-0.02	-0.050			
0.8252	52813.65	3.5150	3.5149	-0.9908	25.40	-0.02	-0.050			
0.8262	52878.53	3.5140	3.5137	-0.9818	25.40	-0.02	-0.050			
0.8272	52942.21	3.5130	3.5130	-0.9714	25.40	-0.02	-0.050			
0.8282	53005.77	3.5120	3.5118	-0.9586	25.40	-0.02	-0.050			
0.8292	53067.54	3.5110	3.5111	-0.9452	25.41	-0.01	-0.050			
0.8301	53127.51	3.5100	3.5100	-0.9306	25.40	-0.02	-0.050			
0.8311	53187.63	3.5090	3.5092	-0.9174	25.40	-0.02	-0.050			
0.8320	53246.23	3.5080	3.5079	-0.9047	25.40	-0.02	-0.050			
0.8329	53303.39	3.5070	3.5070	-0.8889	25.40	-0.02	-0.050			
0.8337	53359.42	3.5060	3.5060	-0.8722	25.41	-0.01	-0.050			
0.8346	53414.84	3.5050	3.5051	-0.8577	25.40	-0.02	-0.050			
0.8355	53468.87	3.5040	3.5039	-0.8463	25.40	-0.02	-0.050			
0.8363	53520.50	3.5030	3.5030	-0.8365	25.40	-0.02	-0.050			
0.8371	53571.59	3.5020	3.5018	-0.8261	25.40	-0.02	-0.050			
0.8378	53621.54	3.5010	3.5010	-0.8171	25.40	-0.02	-0.050			
0.8386	53671.43	3.5000	3.5001	-0.8171	25.40	-0.02	-0.050			
0.8394	53721.24	3.4990	3.4991	-0.8158	25.41	-0.01	-0.050			
0.8402	53770.36	3.4980	3.4981	-0.8256	25.41	-0.01	-0.050			
0.8409	53819.97	3.4970	3.4969	-0.8370	25.41	-0.01	-0.050	0.320	0.626	
0.8417	53868.27	3.4960	3.4959	-0.8503	25.40	-0.02	-0.050			
0.8424	53915.92	3.4950	3.4950	-0.8814	25.40	-0.02	-0.050			
0.8432	53964.64	3.4940	3.4940	-0.9248	25.40	-0.02	-0.050			
0.8440	54012.84	3.4930	3.4935	-0.9692	25.40	-0.02	-0.050			
0.8448	54067.71	3.4920	3.4920	-1.0298	25.41	-0.01	-0.050			
0.8457	54124.81	3.4910	3.4912	-1.1049	25.41	-0.01	-0.050			
0.8467	54187.09	3.4900	3.4900	-1.1728	25.40	-0.02	-0.050			
0.8477	54253.96	3.4890	3.4891	-1.2736	25.41	-0.01	-0.050			
0.8489	54332.03	3.4880	3.4882	-1.3788	25.41	-0.01	-0.050			
0.8503	54420.02	3.4870	3.4870	-1.4885	25.41	-0.01	-0.050			
0.8518	54515.41	3.4860	3.4857	-1.5957	25.41	-0.01	-0.050			
0.8535	54623.77	3.4850	3.4848	-1.7125	25.40	-0.02	-0.050			
0.8553	54739.29	3.4840	3.4838	-1.8320	25.40	-0.02	-0.050			
0.8573	54866.61	3.4830	3.4829	-1.9435	25.41	-0.01	-0.050			
0.8594	55003.82	3.4820	3.4817	-2.0459	25.41	-0.01	-0.050			
0.8617	55146.96	3.4810	3.4809	-2.1355	25.41	-0.01	-0.050	0.375	0.580	
0.8640	55296.69	3.4800	3.4799	-2.2296	25.41	-0.01	-0.050			
0.8664	55450.58	3.4790	3.4789	-2.2904	25.41	-0.01	-0.050			
0.8689	55610.14	3.4780	3.4779	-2.3544	25.40	-0.02	-0.050			
0.8715	55773.31	3.4770	3.4769	-2.4007	25.40	-0.02	-0.050			
0.8740	55935.24	3.4760	3.4762	-2.4276	25.41	-0.01	-0.050			
0.8766	56099.39	3.4750	3.4752	-2.4445	25.40	-0.02	-0.050			
0.8791	56262.28	3.4740	3.4742	-2.4487	25.41	-0.01	-0.050			
0.8816	56425.56	3.4730	3.4729	-2.4420	25.41	-0.01	-0.050	0.310	0.622	
0.8842	56587.95	3.4720	3.4722	-2.4212	25.41	-0.01	-0.050			
0.8867	56746.43	3.4710	3.4711	-2.3935	25.40	-0.02	-0.050			
0.8891	56901.16	3.4700	3.4700	-2.3542	25.40	-0.02	-0.050			
0.8915	57053.40	3.4690	3.4690	-2.3140	25.40	-0.02	-0.050			
0.8938	57203.07	3.4680	3.4680	-2.2697	25.39	-0.03	-0.050			
0.8961	57349.40	3.4670	3.4670	-2.2157	25.40	-0.02	-0.050			
0.8983	57491.09	3.4660	3.4660	-2.1619	25.40	-0.02	-0.050			
0.9005	57629.95	3.4650	3.4650	-2.1050	25.40	-0.02	-0.050	0.134	0.604	
0.9026	57767.14	3.4640	3.4641	-2.0491	25.39	-0.03	-0.050			
0.9047	57898.65	3.4630	3.4627	-1.9872	25.39	-0.03	-0.050			
0.9066	58025.23	3.4620	3.4621	-1.9224	25.39	-0.03	-0.050			
0.9086	58147.44	3.4610	3.4609	-1.8534	25.38	-0.04	-0.050			
0.9104	58264.41	3.4600	3.4600	-1.7817	25.38	-0.04	-0.050			
0.9121	58377.17	3.4590	3.4592	-1.7094	25.38	-0.04	-0.050			
0.9138	58484.49	3.4580	3.4581	-1.6350	25.37	-0.05	-0.050			
0.9154	58585.90	3.4570	3.4570	-1.5614	25.38	-0.04	-0.050			
0.9169	58683.74	3.4560	3.4559	-1.4903	25.38	-0.04	-0.050			
0.9184	58776.65	3.4550	3.4551	-1.4228	25.39	-0.03	-0.050			
0.9198	58864.90	3.4540	3.4538	-1.3525	25.37	-0.05	-0.050			
0.9211	58949.33	3.4530	3.4531	-1.2855	25.38	-0.04	-0.050	0.402	0.482	
0.9223	59027.44	3.4520	3.4521	-1.2165	25.38	-0.04	-0.050			
0.9235	59102.36	3.4510	3.4512	-1.1517	25.38	-0.04	-0.050			
0.9246	59172.42	3.4500	3.4498	-1.0901	25.38	-0.04	-0.050			
0.9256	59236.57	3.4490	3.4489	-1.0286	25.38	-0.04	-0.050			
0.9266	59299.42	3.4480	3.4479	-0.9749	25.38	-0.04	-0.050			
0.9275	59356.90	3.4470	3.4471	-0.9199	25.38	-0.04	-0.050			
0.9283	59410.92	3.4460	3.4460	-0.8694	25.38	-0.04	-0.050			
0.9291	59462.97	3.4450	3.4451	-0.8180	25.38	-0.04	-0.050			
0.9299	59511.60	3.4440	3.4441	-0.7732	25.38	-0.04	-0.050			
0.9306	59556.76	3.4430	3.4429	-0.7311	25.38	-0.04	-0.050			
0.9313	59600.71	3.4420	3.4418	-0.6892	25.38	-0.04	-0.050			
0.9319	59642.05	3.4410	3.4410	-0.6555	25.39	-0.03	-0.050			
0.9325	59681.52	3.4400	3.4399	-0.6255	25.39	-0.03	-0.050			
0.9331	59718.88	3.4390	3.4389	-0.5897	25.39	-0.03	-0.050			
0.9337	59753.94	3.4380	3.4381	-0.5631	25.39	-0.03	-0.050			
0.9342	59786.67	3.4370	3.4371	-0.5302	25.39	-0.03	-0.050			
0.9347	59818.18	3.4360	3.4360	-0.5082	25.39	-0.03	-0.050			
0.9351	59847.74	3.4350	3.4353	-0.4803	25.40	-0.02	-0.050			
0.9356	59876.03	3.4340	3.4340	-0.4619	25.40	-0.02	-0.050			
0.9360	59904.48	3.4330	3.4326	-0.4414	25.39	-0.03	-0.050			
0.9364	59930.29	3.4320	3.4319	-0.4243	25.39	-0.03	-0.050			
0.9368	59956.12	3.4310	3.4310	-0.4061	25.40	-0.02	-0.050			
0.9372	59979.84	3.4300	3.4300	-0.3934	25.40	-0.02	-0.050			
0.9375	60002.03	3.4290	3.4290	-0.3796	25.40	-0.02	-0.050			
0.9379	60025.21	3.4280	3.4281	-0.3668	25.40	-0.02	-0.050			
0.9382	60047.71	3.4270	3.4270	-0.3552	25.40	-0.02	-0.050			
0.9386	60068.99	3.4260	3.4258	-0.3464	25.40	-0.02	-0.050			
0.9389	60090.89	3.4250	3.4250	-0.3381	25.40	-0.02	-0.050			
0.9392	60110.86	3.4240	3.4240	-0.3299	25.40	-0.02	-0.050			
0.9396	60131.78	3.4230	3.4230	-0.3231	25.40	-0.02	-0.050			
0.9399	60151.71	3.4220	3.4220	-0.3179	25.41	-0.01	-0.050			
0.9402	60170.89	3.4210	3.4208	-0.3095	25.41	-0.01	-0.050			
0.9405	60190.02	3.4200	3.4198	-0.3032	25.41	-0.01	-0.050			
0.9408	60208.97	3.4190	3.4191	-0.2996	25.41	-0.01	-0.050	0.524	0.649	
0.9411	60227.60	3.4180	3.4179	-0.2944	25.41	-0.01	-0.050			
0.9413	60245.94	3.4170	3.4169	-0.2917	25.41	-0.01	-0.050			
0.9416	60264.28	3.4160	3.4162	-0.2878	25.40	-0.02	-0.050			
0.9419	60282.55	3.4150	3.4151	-0.2846	25.40	-0.02	-0.050			
0.9422	60300.35	3.4140	3.4139	-0.2807	25.40	-0.02	-0.050			
0.9425	60318.21	3.4130	3.4129	-0.2777	25.41	-0.01	-0.050			
0.9427	60335.76	3.4120	3.4122	-0.2740	25.41	-0.01	-0.050			
0.9430	60353.20	3.4110	3.4108	-0.2711	25.41	-0.01	-0.050			
0.9433	60370.70	3.4100	3.4100	-0.2685	25.40	-0.02	-0.050			
0.9435	60387.07	3.4090	3.4090	-0.2645	25.40	-0.02	-0.050			
0.9438	60403.93	3.4080	3.4081	-0.2622	25.41	-0.01	-0.050			
0.9441	60420.24	3.4070	3.4070	-0.2615	25.41	-0.01	-0.050			
0.9443	60436.99	3.4060	3.4062	-0.2599	25.42	-0.00	-0.050			
0.9446	60453.31	3.4050	3.4050	-0.2587	25.42	0.00	-0.050			
0.9448	60469.65	3.4040	3.4042	-0.2567	25.42	0.00	-0.050			
0.9451	60486.03	3.4030	3.4029	-0.2553	25.42	0.00	-0.050			
0.9453	60501.85	3.4020	3.4021	-0.2540	25.42	0.00	-0.050			
0.9456	60518.07	3.4010	3.4010	-0.2530	25.42	0.00	-0.050			
0.9458	60534.24	3.4000	3.3997	-0.2521	25.42	0.00	-0.050			
0.9461	60550.28	3.3990	3.3989	-0.2501	25.42	0.00	-0.050			
0.9463	60566.26	3.3980	3.3979	-0.2493	25.42	0.00	-0.050			
0.9466	60582.50	3.3970	3.3969	-0.2466	25.43	0.01	-0.050			
0.9468	60598.24	3.3960	3.3960	-0.2454	25.43	0.01	-0.050			
0.9471	60613.91	3.3950	3.3952	-0.2441	25.43	0.01	-0.050			
0.9473	60629.71	3.3940	3.3939	-0.2423	25.42	0.00	-0.050			
0.9476	60645.17	3.3930	3.3930	-0.2408	25.42	0.00	-0.050			
0.9478	60661.22	3.3920	3.3920	-0.2406	25.42	0.00	-0.050			
0.9481	60676.47	3.3910	3.3911	-0.2387	25.42	0.00	-0.050			
0.9483	60691.68	3.3900	3.3901	-0.2367	25.43	0.01	-0.050			
0.9486	60707.30	3.3890	3.3890	-0.2354	25.43	0.01	-0.050			
0.9488	60721.70	3.3880	3.3881	-0.2351	25.43	0.01	-0.050			
0.9490	60736.47	3.3870	3.3870	-0.2329	25.43	0.01	-0.050			
0.9492	60751.09	3.3860	3.3860	-0.2320	25.43	0.01	-0.050			
0.9495	60765.36	3.3850	3.3849	-0.2291	25.43	0.01	-0.050			
0.9497	60779.99	3.3840	3.3839	-0.2283	25.43	0.01	-0.050			
0.9499	60794.86	3.3830	3.3829	-0.2267	25.43	0.01	-0.050			
0.9501	60809.19	3.3820	3.3820	-0.2252	25.43	0.01	-0.050			
0.9504	60823.57	3.3810	3.3810	-0.2243	25.43	0.01	-0.050			
0.9506	60837.56	3.3800	3.3800	-0.2245	25.43	0.01	-0.050			
0.9508	60851.56	3.3790	3.3789	-0.2232	25.43	0.01	-0.050			
0.9510	60865.83	3.3780	3.3779	-0.2229	25.43	0.01	-0.050			
0.9513	60880.30	3.3770	3.3771	-0.2224	25.43	0.01	-0.050			
0.9515	60894.51	3.3760	3.3761	-0.2219	25.43	0.01	-0.050			
0.9517	60908.70	3.3750	3.3752	-0.2214	25.43	0.01	-0.050			
0.9519	60923.35	3.3740	3.3741	-0.2209	25.43	0.01	-0.050			
0.9521	60937.46	3.3730	3.3729	-0.2199	25.43	0.01	-0.050			
0.9524	60951.49	3.3720	3.3720	-0.2188	25.44	0.02	-0.050			
0.9526	60965.58	3.3710	3.3708	-0.2179	25.44	0.02	-0.050			
0.9528	60979.49	3.3700	3.3698	-0.2168	25.44	0.02	-0.050			
0.9530	60993.32	3.3690	3.3688	-0.2157	25.44	0.02	-0.050			
0.9532	61006.81	3.3680	3.3680	-0.2155	25.43	0.01	-0.050			
0.9534	61020.58	3.3670	3.3672	-0.2147	25.43	0.01	-0.050			
0.9537	61033.87	3.3660	3.3663	-0.2131	25.43	0.01	-0.050			
0.9539	61047.91	3.3650	3.3651	-0.2116	25.43	0.01	-0.050			
0.9541	61061.43	3.3640	3.3640	-0.2108	25.43	0.01	-0.050			
0.9543	61075.23	3.3630	3.3629	-0.2106	25.43	0.01	-0.050			
0.9545	61088.61	3.3620	3.3620	-0.2096	25.43	0.01	-0.050			
0.9547	61101.99	3.3610	3.3609	-0.2085	25.43	0.01	-0.050			
0.9549	61115.60	3.3600	3.3599	-0.2080	25.43	0.01	-0.050			
0.9551	61128.57	3.3590	3.3590	-0.2074	25.43	0.01	-0.050			
0.9553	61141.81	3.3580	3.3579	-0.2064	25.43	0.01	-0.050			
0.9555	61154.40	3.3570	3.3570	-0.2042	25.43	0.01	-0.050			
0.9557	61167.40	3.3560	3.3562	-0.2038	25.44	0.02	-0.050			
0.9559	61180.43	3.3550	3.3552	-0.2033	25.44	0.02	-0.050			
0.9561	61193.52	3.3540	3.3541	-0.2030	25.44	0.02	-0.050			
0.9564	61206.56	3.3530	3.3529	-0.2023	25.44	0.02	-0.050			
0.9566	61219.49	3.3520	3.3519	-0.2017	25.44	0.02	-0.050			
0.9568	61232.45	3.3510	3.3508	-0.2012	25.44	0.02	-0.050			
0.9570	61245.31	3.3500	3.3498	-0.2006	25.44	0.02	-0.050			
0.9572	61258.22	3.3490	3.3491	-0.1996	25.44	0.02	-0.050			
0.9574	61270.89	3.3480	3.3480	-0.1986	25.43	0.01	-0.050			
0.9576	61283.58	3.3470	3.3470	-0.1979	25.43	0.01	-0.050			
0.9578	61296.48	3.3460	3.3461	-0.1964	25.43	0.01	-0.050			
0.9580	61308.93	3.3450	3.3450	-0.1952	25.43	0.01	-0.050			
0.9581	61321.39	3.3440	3.3441	-0.1943	25.43	0.01	-0.050			
0.9583	61333.80	3.3430	3.3431	-0.1934	25.43	0.01	-0.050			
0.9585	61346.82	3.3420	3.3420	-0.1935	25.43	0.01	-0.050			
0.9587	61359.16	3.3410	3.3409	-0.1920	25.43	0.01	-0.050			
0.9589	61370.99	3.3400	3.3401	-0.1915	25.43	0.01	-0.050			
0.9591	61383.12	3.3390	3.3391	-0.1901	25.43	0.01	-0.050			
0.9593	61395.25	3.3380	3.3379	-0.1891	25.43	0.01	-0.050			
0.9595	61407.32	3.3370	3.3370	-0.1880	25.43	0.01	-0.050			
0.9597	61418.66	3.3360	3.3362	-0.1874	25.43	0.01	-0.050			
0.9599	61430.64	3.3350	3.3351	-0.1869	25.43	0.01	-0.050			
0.9600	61442.59	3.3340	3.3340	-0.1865	25.43	0.01	-0.050			
0.9602	61454.10	3.3330	3.3331	-0.1854	25.43	0.01	-0.050			
0.9604	61466.15	3.3320	3.3318	-0.1849	25.43	0.01	-0.050			
0.9606	61477.97	3.3310	3.3309	-0.1847	25.43	0.01	-0.050			
0.9608	61489.78	3.3300	3.3298	-0.1845	25.42	0.00	-0.050	0.217	0.626	
0.9610	61501.65	3.3290	3.3288	-0.1834	25.42	0.00	-0.050			
0.9611	61513.38	3.3280	3.3279	-0.1830	25.42	0.00	-0.050			
0.9613	61525.08	3.3270	3.3269	-0.1827	25.42	0.00	-0.050			
0.9615	61536.85	3.3260	3.3260	-0.1825	25.43	0.01	-0.050			
0.9617	61548.99	3.3250	3.3250	-0.1809	25.43	0.01	-0.050			
0.9619	61560.54	3.3240	3.3241	-0.1800	25.43	0.01	-0.050			
0.9621	61572.03	3.3230	3.3230	-0.1792	25.43	0.01	-0.050			
0.9623	61584.09	3.3220	3.3221	-0.1789	25.43	0.01	-0.050			
0.9624	61595.34	3.3210	3.3211	-0.1782	25.43	0.01	-0.050			
0.9626	61606.91	3.3200	3.3201	-0.1775	25.43	0.01	-0.050			
0.9628	61618.23	3.3190	3.3190	-0.1762	25.43	0.01	-0.050			
0.9630	61629.12	3.3180	3.3179	-0.1757	25.43	0.01	-0.050			
0.9631	61640.33	3.3170	3.3170	-0.1747	25.43	0.01	-0.050			
0.9633	61651.27	3.3160	3.3161	-0.1732	25.43	0.01	-0.050			
0.9635	61662.33	3.3150	3.3151	-0.1724	25.43	0.01	-0.050			
0.9636	61672.94	3.3140	3.3139	-0.1727	25.43	0.01	-0.050			
0.9638	61683.98	3.3130	3.3127	-0.1722	25.43	0.01	-0.050			
0.9640	61694.44	3.3120	3.3119	-0.1709	25.43	0.01	-0.050			
0.9641	61705.49	3.3110	3.3111	-0.1706	25.43	0.01	-0.050			
0.9643	61716.40	3.3100	3.3101	-0.1705	25.43	0.01	-0.050			
0.9645	61727.13	3.3090	3.3090	-0.1700	25.43	0.01	-0.050			
0.9647	61738.01	3.3080	3.3080	-0.1700	25.43	0.01	-0.050			
0.9648	61748.96	3.3070	3.3069	-0.1697	25.43	0.01	-0.050			
0.9650	61759.83	3.3060	3.3058	-0.1697	25.43	0.01	-0.050			
0.9652	61770.61	3.3050	3.3050	-0.1695	25.43	0.01	-0.050			
0.9653	61781.45	3.3040	3.3041	-0.1694	25.43	0.01	-0.050			
0.9655	61792.49	3.3030	3.3031	-0.1688	25.43	0.01	-0.050			
0.9657	61803.29	3.3020	3.3022	-0.1686	25.43	0.01	-0.050			
0.9659	61814.47	3.3010	3.3010	-0.1690	25.43	0.01	-0.050			
0.9660	61825.27	3.3000	3.3000	-0.1685	25.43	0.01	-0.050			
0.9662	61836.18	3.2990	3.2989	-0.1675	25.43	0.01	-0.050			
0.9664	61847.01	3.2980	3.2978	-0.1672	25.43	0.01	-0.050			
0.9665	61857.69	3.2970	3.2968	-0.1664	25.43	0.01	-0.050			
0.9667	61868.31	3.2960	3.2962	-0.1656	25.43	0.01	-0.050			
0.9669	61879.08	3.2950	3.2950	-0.1641	25.43	0.01	-0.050			
0.9670	61889.76	3.2940	3.2940	-0.1636	25.43	0.01	-0.050			
0.9672	61900.20	3.2930	3.2930	-0.1625	25.43	0.01	-0.050			
0.9674	61910.57	3.2920	3.2920	-0.1614	25.44	0.02	-0.050			
0.9675	61920.57	3.2910	3.2911	-0.1609	25.44	0.02	-0.050			
0.9677	61930.84	3.2900	3.2900	-0.1601	25.44	0.02	-0.050			
0.9678	61941.05	3.2890	3.2890	-0.1592	25.44	0.02	-0.050			
0.9680	61951.22	3.2880	3.2881	-0.1584	25.44	0.02	-0.050			
0.9681	61961.24	3.2870	3.2868	-0.1580	25.44	0.02	-0.050			
0.9683	61971.33	3.2860	3.2860	-0.1573	25.44	0.02	-0.050			
0.9685	61981.37	3.2850	3.2851	-0.1566	25.44	0.02	-0.050			
0.9686	61991.37	3.2840	3.2841	-0.1558	25.44	0.02	-0.050			
0.9688	62000.91	3.2830	3.2830	-0.1549	25.44	0.02	-0.050			
0.9689	62010.82	3.2820	3.2820	-0.1545	25.44	0.02	-0.050			
0.9691	62020.69	3.2810	3.2809	-0.1541	25.43	0.01	-0.050			
0.9692	62030.55	3.2800	3.2798	-0.1537	25.43	0.01	-0.050			
0.9694	62040.11	3.2790	3.2790	-0.1532	25.43	0.01	-0.050			
0.9695	62049.90	3.2780	3.2780	-0.1530	25.43	0.01	-0.050			
0.9697	62059.69	3.2770	3.2770	-0.1528	25.43	0.01	-0.050			
0.9698	62069.46	3.2760	3.2762	-0.1526	25.43	0.01	-0.050			
0.9700	62079.78	3.2750	3.2753	-0.1513	25.43	0.01	-0.050			
0.9701	62089.44	3.2740	3.2739	-0.1506	25.43	0.01	-0.050			
0.9703	62099.06	3.2730	3.2729	-0.1500	25.43	0.01	-0.050			
0.9704	62108.63	3.2720	3.2721	-0.1493	25.43	0.01	-0.050			
0.9706	62118.70	3.2710	3.2710	-0.1492	25.43	0.01	-0.050			
0.9707	62127.83	3.2700	3.2700	-0.1492	25.43	0.01	-0.050			
0.9709	62137.36	3.2690	3.2690	-0.1485	25.43	0.01	-0.050			
0.9710	62146.84	3.2680	3.2680	-0.1478	25.43	0.01	-0.050			
0.9712	62156.14	3.2670	3.2670	-0.1469	25.43	0.01	-0.050			
0.9713	62165.36	3.2660	3.2660	-0.1466	25.43	0.01	-0.050			
0.9715	62174.73	3.2650	3.2652	-0.1462	25.44	0.02	-0.050			
0.9716	62184.07	3.2640	3.2643	-0.1457	25.44	0.02	-0.050			
0.9718	62193.32	3.2630	3.2630	-0.1451	25.44	0.02	-0.050			
0.9719	62202.60	3.2620	3.2620	-0.1447	25.44	0.02	-0.050			
0.9721	62211.81	3.2610	3.2611	-0.1444	25.44	0.02	-0.050			
0.9722	62221.04	3.2600	3.2598	-0.1440	25.44	0.02	-0.050			
0.9723	62229.99	3.2590	3.2586	-0.1431	25.43	0.01	-0.050			
0.9725	62239.15	3.2580	3.2578	-0.1429	25.43	0.01	-0.050			
0.9726	62248.38	3.2570	3.2570	-0.1425	25.43	0.01	-0.050			
0.9728	62257.49	3.2560	3.2561	-0.1422	25.43	0.01	-0.050			
0.9729	62266.43	3.2550	3.2552	-0.1416	25.43	0.01	-0.050			
0.9731	62275.48	3.2540	3.2542	-0.1414	25.43	0.01	-0.050			
0.9732	62284.53	3.2530	3.2532	-0.1412	25.43	0.01	-0.050			
0.9733	62293.95	3.2520	3.2521	-0.1397	25.43	0.01	-0.050			
0.9735	62302.87	3.2510	3.2509	-0.1392	25.43	0.01	-0.050			
0.9736	62312.43	3.2500	3.2498	-0.1398	25.43	0.01	-0.050			
0.9738	62321.35	3.2490	3.2489	-0.1388	25.43	0.01	-0.050			
0.9739	62329.86	3.2480	3.2480	-0.1388	25.43	0.01	-0.050			
0.9740	62338.72	3.2470	3.2471	-0.1381	25.44	0.02	-0.050			
0.9742	62347.30	3.2460	3.2461	-0.1369	25.44	0.02	-0.050			
0.9743	62356.05	3.2450	3.2450	-0.1364	25.44	0.02	-0.050			
0.9744	62364.76	3.2440	3.2440	-0.1358	25.44	0.02	-0.050			
0.9746	62373.26	3.2430	3.2431	-0.1358	25.44	0.02	-0.050			
0.9747	62381.94	3.2420	3.2421	-0.1354	25.44	0.02	-0.050			
0.9749	62390.42	3.2410	3.2411	-0.1348	25.43	0.01	-0.050			
0.9750	62399.04	3.2400	3.2397	-0.1345	25.43	0.01	-0.050			
0.9751	62407.64	3.2390	3.2388	-0.1342	25.43	0.01	-0.050			
0.9753	62416.31	3.2380	3.2379	-0.1336	25.43	0.01	-0.050			
0.9754	62424.73	3.2370	3.2370	-0.1329	25.43	0.01	-0.050			
0.9755	62433.23	3.2360	3.2360	-0.1327	25.43	0.01	-0.050			
0.9757	62441.72	3.2350	3.2349	-0.1324	25.44	0.02	-0.050			
0.9758	62450.18	3.2340	3.2341	-0.1321	25.44	0.02	-0.050			
0.9759	62458.86	3.2330	3.2331	-0.1308	25.44	0.02	-0.050			
0.9761	62467.32	3.2320	3.2320	-0.1305	25.44	0.02	-0.050			
0.9762	62475.65	3.2310	3.2309	-0.1300	25.44	0.02	-0.050			
0.9763	62483.95	3.2300	3.2300	-0.1294	25.44	0.02	-0.050			
0.9764	62492.22	3.2290	3.2291	-0.1288	25.44	0.02	-0.050			
0.9766	62500.27	3.2280	3.2282	-0.1303	25.44	0.02	-0.050			
0.9767	62508.60	3.2270	3.2272	-0.1299	25.44	0.02	-0.050			
0.9768	62516.90	3.2260	3.2261	-0.1296	25.44	0.02	-0.050			
0.9770	62525.19	3.2250	3.2250	-0.1292	25.44	0.02	-0.050			
0.9771	62533.44	3.2240	3.2239	-0.1288	25.44	0.02	-0.050			
0.9772	62541.49	3.2230	3.2230	-0.1275	25.44	0.02	-0.050			
0.9773	62549.64	3.2220	3.2221	-0.1272	25.44	0.02	-0.050			
0.9775	62557.78	3.2210	3.2206	-0.1270	25.44	0.02	-0.050			
0.9776	62565.89	3.2200	3.2197	-0.1267	25.44	0.02	-0.050			
0.9777	62574.00	3.2190	3.2190	-0.1265	25.44	0.02	-0.050			
0.9778	62582.04	3.2180	3.2179	-0.1257	25.44	0.02	-0.050			
0.9780	62590.08	3.2170	3.2169	-0.1255	25.44	0.02	-0.050			
0.9781	62598.10	3.2160	3.2163	-0.1253	25.44	0.02	-0.050			
0.9782	62606.11	3.2150	3.2153	-0.1250	25.44	0.02	-0.050			
0.9784	62614.44	3.2140	3.2140	-0.1238	25.44	0.02	-0.050			
0.9785	62622.63	3.2130	3.2130	-0.1241	25.44	0.02	-0.050			
0.9786	62630.55	3.2120	3.2121	-0.1234	25.44	0.02	-0.050			
0.9787	62638.42	3.2110	3.2108	-0.1227	25.44	0.02	-0.050			
0.9788	62646.25	3.2100	3.2099	-0.1220	25.44	0.02	-0.050			
0.9790	62654.04	3.2090	3.2091	-0.1214	25.44	0.02	-0.050			
0.9791	62661.60	3.2080	3.2081	-0.1229	25.44	0.02	-0.050			
0.9792	62669.46	3.2070	3.2071	-0.1225	25.44	0.02	-0.050			
0.9793	62677.28	3.2060	3.2062	-0.1221	25.44	0.02	-0.050			
0.9795	62685.09	3.2050	3.2049	-0.1217	25.44	0.02	-0.050			
0.9796	62693.17	3.2040	3.2039	-0.1204	25.44	0.02	-0.050			
0.9797	62700.53	3.2030	3.2030	-0.1189	25.44	0.02	-0.050			
0.9798	62708.12	3.2020	3.2020	-0.1185	25.45	0.03	-0.050			
0.9799	62715.69	3.2010	3.2008	-0.1181	25.45	0.03	-0.050			
0.9801	62723.24	3.2000	3.1997	-0.1177	25.45	0.03	-0.050			
0.9802	62730.76	3.1990	3.1989	-0.1173	25.45	0.03	-0.050			
0.9803	62738.66	3.1980	3.1977	-0.1173	25.45	0.03	-0.050			
0.9804	62745.82	3.1970	3.1968	-0.1175	25.45	0.03	-0.050			
0.9805	62753.33	3.1960	3.1958	-0.1171	25.45	0.03	-0.050			
0.9806	62760.81	3.1950	3.1948	-0.1167	25.45	0.03	-0.050			
0.9808	62768.22	3.1940	3.1940	-0.1162	25.45	0.03	-0.050	0.243	0.629	
0.9809	62775.65	3.1930	3.1930	-0.1159	25.45	0.03	-0.050			
0.9810	62783.07	3.1920	3.1918	-0.1155	25.45	0.03	-0.050			
0.9811	62790.44	3.1910	3.1910	-0.1151	25.45	0.03	-0.050			
0.9812	62797.80	3.1900	3.1897	-0.1147	25.45	0.03	-0.050			
0.9813	62805.13	3.1890	3.1888	-0.1143	25.45	0.03	-0.050			
0.9814	62812.68	3.1880	3.1879	-0.1143	25.45	0.03	-0.050			
0.9816	62819.98	3.1870	3.1868	-0.1137	25.45	0.03	-0.050			
0.9817	62827.17	3.1860	3.1857	-0.1134	25.45	0.03	-0.050			
0.9818	62834.41	3.1850	3.1849	-0.1129	25.45	0.03	-0.050			
0.9819	62841.10	3.1840	3.1841	-0.1108	25.45	0.03	-0.050			
0.9820	62848.18	3.1830	3.1830	-0.1107	25.45	0.03	-0.050			
0.9821	62855.27	3.1820	3.1820	-0.1106	25.45	0.03	-0.050			
0.9822	62862.34	3.1810	3.1812	-0.1106	25.45	0.03	-0.050			
0.9823	62869.60	3.1800	3.1803	-0.1099	25.45	0.03	-0.050			
0.9824	62876.62	3.1790	3.1792	-0.1096	25.45	0.03	-0.050			
0.9826	62883.63	3.1780	3.1781	-0.1094	25.45	0.03	-0.050			
0.9827	62891.47	3.1770	3.1769	-0.1102	25.45	0.03	-0.050			
0.9828	62898.50	3.1760	3.1760	-0.1095	25.45	0.03	-0.050			
0.9829	62905.09	3.1750	3.1750	-0.1096	25.45	0.03	-0.050			
0.9830	62912.09	3.1740	3.1739	-0.1091	25.45	0.03	-0.050			
0.9831	62919.06	3.1730	3.1728	-0.1087	25.45	0.03	-0.050			
0.9832	62925.56	3.1720	3.1720	-0.1075	25.46	0.04	-0.050			
0.9833	62932.43	3.1710	3.1712	-0.1073	25.46	0.04	-0.050			
0.9834	62939.30	3.1700	3.1700	-0.1072	25.46	0.04	-0.050			
0.9835	62946.32	3.1690	3.1690	-0.1065	25.46	0.04	-0.050			
0.9836	62953.13	3.1680	3.1681	-0.1063	25.46	0.04	-0.050			
0.9837	62959.92	3.1670	3.1669	-0.1060	25.46	0.04	-0.050			
0.9839	62966.73	3.1660	3.1660	-0.1058	25.46	0.04	-0.050			
0.9840	62973.49	3.1650	3.1651	-0.1055	25.46	0.04	-0.050			
0.9841	62980.23	3.1640	3.1639	-0.1052	25.45	0.03	-0.050			
0.9842	62986.85	3.1630	3.1629	-0.1052	25.45	0.03	-0.050			
0.9843	62993.57	3.1620	3.1621	-0.1050	25.45	0.03	-0.050			
0.9844	63000.28	3.1610	3.1611	-0.1047	25.45	0.03	-0.050			
0.9845	63006.98	3.1600	3.1600	-0.1045	25.45	0.03	-0.050			
0.9846	63013.66	3.1590	3.1589	-0.1043	25.45	0.03	-0.050			
0.9847	63020.33	3.1580	3.1581	-0.1041	25.45	0.03	-0.050			
0.9848	63026.99	3.1570	3.1572	-0.1039	25.45	0.03	-0.050			
0.9849	63033.94	3.1560	3.1559	-0.1026	25.46	0.04	-0.050			
0.9850	63040.72	3.1550	3.1548	-0.1027	25.46	0.04	-0.050			
0.9851	63047.28	3.1540	3.1540	-0.1021	25.46	0.04	-0.050			
0.9852	63053.79	3.1530	3.1529	-0.1015	25.46	0.04	-0.050			
0.9853	63060.27	3.1520	3.1519	-0.1009	25.46	0.04	-0.050			
0.9854	63066.71	3.1510	3.1509	-0.1003	25.46	0.04	-0.050			
0.9855	63072.90	3.1500	3.1499	-0.1004	25.46	0.04	-0.050			
0.9856	63079.22	3.1490	3.1490	-0.0997	25.46	0.04	-0.050			
0.9857	63085.59	3.1480	3.1479	-0.0993	25.46	0.04	-0.050			
0.9858	63091.94	3.1470	3.1469	-0.0989	25.46	0.04	-0.050			
0.9859	63098.25	3.1460	3.1462	-0.0985	25.46	0.04	-0.050			
0.9860	63104.54	3.1450	3.1455	-0.0981	25.46	0.04	-0.050			
0.9861	63110.63	3.1440	3.1442	-0.0983	25.46	0.04	-0.050			
0.9862	63116.87	3.1430	3.1430	-0.0979	25.46	0.04	-0.050			
0.9863	63123.13	3.1420	3.1419	-0.0976	25.46	0.04	-0.050			
0.9864	63129.37	3.1410	3.1408	-0.0974	25.46	0.04	-0.050			
0.9865	63135.60	3.1400	3.1398	-0.0971	25.46	0.04	-0.050			
0.9866	63141.80	3.1390	3.1388	-0.0969	25.46	0.04	-0.050			
0.9867	63148.00	3.1380	3.1378	-0.0966	25.46	0.04	-0.050			
0.9868	63154.19	3.1370	3.1368	-0.0963	25.46	0.04	-0.050			
0.9869	63160.03	3.1360	3.1359	-0.0952	25.46	0.04	-0.050			
0.9870	63166.13	3.1350	3.1351	-0.0952	25.46	0.04	-0.050			
0.9871	63172.21	3.1340	3.1342	-0.0951	25.46	0.04	-0.050			
0.9872	63178.29	3.1330	3.1332	-0.0950	25.46	0.04	-0.050			
0.9873	63184.37	3.1320	3.1320	-0.0949	25.46	0.04	-0.050			
0.9874	63190.44	3.1310	3.1310	-0.0948	25.46	0.04	-0.050			
0.9875	63197.02	3.1300	3.1300	-0.0951	25.46	0.04	-0.050			
0.9875	63203.09	3.1290	3.1290	-0.0947	25.46	0.04	-0.050			
0.9876	63209.14	3.1280	3.1280	-0.0943	25.46	0.04	-0.050			
0.9877	63215.16	3.1270	3.1272	-0.0939	25.46	0.04	-0.050			
0.9878	63221.16	3.1260	3.1260	-0.0935	25.46	0.04	-0.050			
0.9879	63227.13	3.1250	3.1249	-0.0931	25.46	0.04	-0.050			
0.9880	63233.06	3.1240	3.1240	-0.0927	25.46	0.04	-0.050			
0.9881	63238.98	3.1230	3.1230	-0.0923	25.46	0.04	-0.050			
0.9882	63244.87	3.1220	3.1220	-0.0919	25.47	0.05	-0.050			
0.9883	63250.74	3.1210	3.1210	-0.0915	25.47	0.05	-0.050			
0.9884	63256.58	3.1200	3.1199	-0.0910	25.47	0.05	-0.050			
0.9885	63262.39	3.1190	3.1189	-0.0906	25.47	0.05	-0.050			
0.9886	63267.96	3.1180	3.1182	-0.0911	25.47	0.05	-0.050			
0.9886	63273.59	3.1170	3.1171	-0.0903	25.47	0.05	-0.050			
0.9887	63279.37	3.1160	3.1161	-0.0902	25.47	0.05	-0.050			
0.9888	63285.13	3.1150	3.1150	-0.0900	25.47	0.05	-0.050			
0.9889	63290.89	3.1140	3.1140	-0.0899	25.47	0.05	-0.050			
0.9890	63296.64	3.1130	3.1130	-0.0898	25.46	0.04	-0.050			
0.9891	63302.38	3.1120	3.1120	-0.0896	25.46	0.04	-0.050			
0.9892	63308.17	3.1110	3.1109	-0.0892	25.46	0.04	-0.050			
0.9893	63313.84	3.1100	3.1099	-0.0889	25.46	0.04	-0.050			
0.9894	63319.52	3.1090	3.1090	-0.0888	25.46	0.04	-0.050			
0.9895	63325.20	3.1080	3.1080	-0.0886	25.46	0.04	-0.050			
0.9895	63330.86	3.1070	3.1069	-0.0884	25.46	0.04	-0.050			
0.9896	63336.51	3.1060	3.1060	-0.0883	25.46	0.04	-0.050			
0.9897	63342.17	3.1050	3.1051	-0.0880	25.46	0.04	-0.050			
0.9898	63347.83	3.1040	3.1041	-0.0880	25.47	0.05	-0.050			
0.9899	63353.45	3.1030	3.1030	-0.0878	25.47	0.05	-0.050			
0.9900	63359.06	3.1020	3.1020	-0.0876	25.47	0.05	-0.050			
0.9901	63364.66	3.1010	3.1011	-0.0874	25.47	0.05	-0.050			
0.9902	63370.25	3.1000	3.1001	-0.0872	25.47	0.05	-0.050			
0.9902	63375.82	3.0990	3.0991	-0.0870	25.47	0.05	-0.050			
0.9903	63381.71	3.0980	3.0979	-0.0867	25.47	0.05	-0.050			
0.9904	63387.25	3.0970	3.0969	-0.0863	25.47	0.05	-0.050			
0.9905	63392.76	3.0960	3.0959	-0.0859	25.47	0.05	-0.050			
0.9906	63398.24	3.0950	3.0950	-0.0855	25.47	0.05	-0.050			
0.9907	63403.70	3.0940	3.0940	-0.0850	25.47	0.05	-0.050			
0.9908	63409.13	3.0930	3.0930	-0.0846	25.47	0.05	-0.050			
0.9909	63414.53	3.0920	3.0920	-0.0842	25.47	0.05	-0.050			
0.9909	63419.77	3.0910	3.0911	-0.0838	25.47	0.05	-0.050			
0.9910	63425.13	3.0900	3.0903	-0.0835	25.47	0.05	-0.050			
0.9911	63430.46	3.0890	3.0892	-0.0832	25.47	0.05	-0.050			
0.9912	63435.77	3.0880	3.0880	-0.0828	25.47	0.05	-0.050			
0.9913	63441.06	3.0870	3.0870	-0.0825	25.47	0.05	-0.050			
0.9913	63446.33	3.0860	3.0859	-0.0821	25.47	0.05	-0.050			
0.9914	63451.69	3.0850	3.0849	-0.0819	25.47	0.05	-0.050			
0.9915	63456.65	3.0840	3.0840	-0.0819	25.47	0.05	-0.050			
0.9916	63461.88	3.0830	3.0829	-0.0817	25.47	0.05	-0.050			
0.9917	63467.10	3.0820	3.0818	-0.0814	25.47	0.05	-0.050			
0.9918	63472.30	3.0810	3.0809	-0.0812	25.47	0.05	-0.050			
0.9918	63477.49	3.0800	3.0799	-0.0810	25.47	0.05	-0.050			
0.9919	63482.67	3.0790	3.0791	-0.0807	25.47	0.05	-0.050			
0.9920	63487.46	3.0780	3.0781	-0.0802	25.47	0.05	-0.050			
0.9921	63492.79	3.0770	3.0770	-0.0799	25.47	0.05	-0.050			
0.9922	63497.90	3.0760	3.0759	-0.0797	25.47	0.05	-0.050			
0.9922	63503.00	3.0750	3.0749	-0.0796	25.47	0.05	-0.050			
0.9923	63508.09	3.0740	3.0739	-0.0795	25.47	0.05	-0.050			
0.9924	63513.17	3.0730	3.0730	-0.0793	25.47	0.05	-0.050			
0.9925	63518.24	3.0720	3.0721	-0.0792	25.47	0.05	-0.050			
0.9926	63523.46	3.0710	3.0710	-0.0792	25.47	0.05	-0.050			
0.9926	63528.62	3.0700	3.0698	-0.0788	25.47	0.05	-0.050			
0.9927	63533.66	3.0690	3.0691	-0.0785	25.47	0.05	-0.050			
0.9928	63538.67	3.0680	3.0681	-0.0782	25.47	0.05	-0.050			
0.9929	63543.67	3.0670	3.0670	-0.0779	25.47	0.05	-0.050			
0.9929	63548.65	3.0660	3.0661	-0.0776	25.47	0.05	-0.050			
0.9930	63553.61	3.0650	3.0652	-0.0773	25.47	0.05	-0.050			
0.9931	63558.72	3.0640	3.0641	-0.0772	25.47	0.05	-0.050			
0.9932	63563.32	3.0630	3.0631	-0.0773	25.47	0.05	-0.050			
0.9933	63568.25	3.0620	3.0620	-0.0771	25.47	0.05	-0.050			
0.9933	63573.18	3.0610	3.0610	-0.0769	25.47	0.05	-0.050			
0.9934	63578.09	3.0600	3.0599	-0.0767	25.47	0.05	-0.050			
0.9935	63582.99	3.0590	3.0589	-0.0765	25.47	0.05	-0.050			
0.9936	63587.88	3.0580	3.0582	-0.0763	25.47	0.05	-0.050			
0.9936	63592.50	3.0570	3.0572	-0.0758	25.47	0.05	-0.050			
0.9937	63597.35	3.0560	3.0562	-0.0758	25.47	0.05	-0.050			
0.9938	63602.34	3.0550	3.0550	-0.0754	25.47	0.05	-0.050			
0.9939	63607.16	3.0540	3.0539	-0.0753	25.47	0.05	-0.050			
0.9939	63611.98	3.0530	3.0529	-0.0752	25.47	0.05	-0.050			
0.9940	63616.78	3.0520	3.0518	-0.0750	25.48	0.06	-0.050			
0.9941	63621.58	3.0510	3.0508	-0.0749	25.48	0.06	-0.050			
0.9942	63626.37	3.0500	3.0498	-0.0748	25.48	0.06	-0.050			
0.9942	63631.15	3.0490	3.0489	-0.0746	25.48	0.06	-0.050			
0.9943	63636.14	3.0480	3.0480	-0.0741	25.48	0.06	-0.050			
0.9944	63640.88	3.0470	3.0472	-0.0739	25.48	0.06	-0.050			
0.9945	63645.59	3.0460	3.0461	-0.0736	25.48	0.06	-0.050			
0.9945	63650.30	3.0450	3.0450	-0.0733	25.48	0.06	-0.050			
0.9946	63654.98	3.0440	3.0440	-0.0731	25.48	0.06	-0.050			
0.9947	63659.97	3.0430	3.0430	-0.0733	25.48	0.06	-0.050			
0.9948	63664.64	3.0420	3.0419	-0.0728	25.48	0.06	-0.050			
0.9948	63669.29	3.0410	3.0409	-0.0724	25.48	0.06	-0.050			
0.9949	63673.68	3.0400	3.0400	-0.0724	25.48	0.06	-0.050			
0.9950	63678.31	3.0390	3.0390	-0.0721	25.48	0.06	-0.050			
0.9950	63682.91	3.0380	3.0381	-0.0717	25.48	0.06	-0.050			
0.9951	63687.49	3.0370	3.0371	-0.0714	25.48	0.06	-0.050			
0.9952	63692.05	3.0360	3.0361	-0.0711	25.48	0.06	-0.050			
0.9953	63696.39	3.0350	3.0351	-0.0706	25.48	0.06	-0.050			
0.9953	63700.90	3.0340	3.0340	-0.0703	25.48	0.06	-0.050			
0.9954	63705.40	3.0330	3.0329	-0.0701	25.48	0.06	-0.050			
0.9955	63709.89	3.0320	3.0320	-0.0699	25.48	0.06	-0.050			
0.9955	63714.35	3.0310	3.0310	-0.0697	25.48	0.06	-0.050			
0.9956	63718.81	3.0300	3.0300	-0.0695	25.48	0.06	-0.050			
0.9957	63723.25	3.0290	3.0290	-0.0693	25.48	0.06	-0.050			
0.9957	63727.60	3.0280	3.0280	-0.0689	25.48	0.06	-0.050			
0.9958	63732.01	3.0270	3.0270	-0.0687	25.48	0.06	-0.050			
0.9959	63736.40	3.0260	3.0260	-0.0686	25.48	0.06	-0.050			
0.9959	63740.78	3.0250	3.0250	-0.0684	25.48	0.06	-0.050			
0.9960	63745.15	3.0240	3.0240	-0.0682	25.48	0.06	-0.050			
0.9961	63749.48	3.0230	3.0231	-0.0681	25.48	0.06	-0.050			
0.9962	63753.83	3.0220	3.0220	-0.0680	25.48	0.06	-0.050			
0.9962	63758.18	3.0210	3.0210	-0.0678	25.48	0.06	-0.050			
0.9963	63762.56	3.0200	3.0201	-0.0678	25.48	0.06	-0.050			
0.9964	63766.89	3.0190	3.0190	-0.0676	25.48	0.06	-0.050			
0.9964	63771.21	3.0180	3.0180	-0.0674	25.48	0.06	-0.050			
0.9965	63775.52	3.0170	3.0169	-0.0672	25.48	0.06	-0.050			
0.9966	63779.78	3.0160	3.0159	-0.0672	25.48	0.06	-0.050			
0.9966	63784.07	3.0150	3.0149	-0.0670	25.48	0.06	-0.050			
0.9967	63788.36	3.0140	3.0139	-0.0669	25.48	0.06	-0.050			
0.9968	63792.63	3.0130	3.0129	-0.0667	25.48	0.06	-0.050			
0.9968	63796.76	3.0120	3.0119	-0.0665	25.48	0.06	-0.050			
0.9969	63801.01	3.0110	3.0113	-0.0664	25.48	0.06	-0.050			
0.9970	63805.26	3.0100	3.0101	-0.0663	25.48	0.06	-0.050			
0.9970	63809.50	3.0090	3.0090	-0.0663	25.48	0.06	-0.050			
0.9971	63813.74	3.0080	3.0079	-0.0662	25.48	0.06	-0.050			
0.9972	63817.98	3.0070	3.0070	-0.0661	25.48	0.06	-0.050			
0.9972	63822.21	3.0060	3.0060	-0.0661	25.48	0.06	-0.050			
0.9973	63826.43	3.0050	3.0051	-0.0660	25.48	0.06	-0.050			
0.9974	63830.65	3.0040	3.0041	-0.0659	25.48	0.06	-0.050			
0.9974	63834.89	3.0030	3.0030	-0.0655	25.48	0.06	-0.050			
0.9975	63839.07	3.0020	3.0020	-0.0653	25.48	0.06	-0.050			
