Ah_balance (normalized)	Ah_balance (mAh)	Voltage - fit (V)	Voltage -  interpolate (V)	dQ/dV (1/V)	Temperature (°C)	Temperature - diff (°C)	Current (C)	R_DC 0ms (mOhm)	R_DC 50ms (mOhm)	R_DC 50 ms PEC (mOhm)
0.0003	19.17	4.1850	4.1847	-0.4269	24.90	0.00	-0.050			
0.0007	47.59	4.1840	4.1837	-0.4702	24.90	0.00	-0.050			
0.0012	79.03	4.1830	4.1829	-0.5027	24.90	0.00	-0.050			
0.0018	112.50	4.1820	4.1818	-0.5282	24.90	0.00	-0.050			
0.0023	147.32	4.1810	4.1810	-0.5494	24.90	0.00	-0.050			
0.0029	184.09	4.1800	4.1800	-0.5698	24.90	0.00	-0.050			
0.0035	221.62	4.1790	4.1789	-0.5869	24.89	-0.01	-0.050			
0.0041	260.79	4.1780	4.1779	-0.6027	24.88	-0.02	-0.050			
0.0047	300.19	4.1770	4.1770	-0.6168	24.88	-0.02	-0.050			
0.0053	340.83	4.1760	4.1760	-0.6295	24.88	-0.02	-0.050			
0.0060	382.18	4.1750	4.1750	-0.6408	24.88	-0.02	-0.050			
0.0066	424.34	4.1740	4.1741	-0.6503	24.87	-0.03	-0.050			
0.0073	469.49	4.1730	4.1730	-0.6646	24.86	-0.04	-0.050			
0.0080	512.81	4.1720	4.1719	-0.6722	24.86	-0.04	-0.050			
0.0087	556.70	4.1710	4.1711	-0.6800	24.86	-0.04	-0.050			
0.0094	600.73	4.1700	4.1699	-0.6866	24.86	-0.04	-0.050			
0.0101	644.33	4.1690	4.1690	-0.6946	24.86	-0.04	-0.050			
0.0108	689.53	4.1680	4.1682	-0.6995	24.85	-0.05	-0.050			
0.0115	734.96	4.1670	4.1670	-0.7044	24.85	-0.05	-0.050			
0.0122	780.56	4.1660	4.1661	-0.7084	24.85	-0.05	-0.050			
0.0129	826.28	4.1650	4.1648	-0.7123	24.84	-0.06	-0.050			
0.0136	872.17	4.1640	4.1639	-0.7167	24.83	-0.07	-0.050			
0.0143	918.39	4.1630	4.1630	-0.7216	24.82	-0.08	-0.050			
0.0151	964.55	4.1620	4.1620	-0.7255	24.82	-0.08	-0.050			
0.0158	1011.16	4.1610	4.1610	-0.7284	24.82	-0.08	-0.050			
0.0165	1057.59	4.1600	4.1600	-0.7327	24.82	-0.08	-0.050			
0.0173	1104.66	4.1590	4.1590	-0.7370	24.80	-0.10	-0.050			
0.0180	1151.75	4.1580	4.1582	-0.7398	24.80	-0.10	-0.050			
0.0187	1199.73	4.1570	4.1569	-0.7438	24.81	-0.09	-0.050			
0.0195	1247.78	4.1560	4.1560	-0.7456	24.81	-0.09	-0.050			
0.0203	1296.04	4.1550	4.1550	-0.7491	24.80	-0.10	-0.050	0.402	0.506	
0.0210	1344.07	4.1540	4.1540	-0.7523	24.80	-0.10	-0.050			
0.0218	1392.32	4.1530	4.1529	-0.7552	24.81	-0.09	-0.050			
0.0225	1440.79	4.1520	4.1520	-0.7564	24.82	-0.08	-0.050			
0.0233	1488.55	4.1510	4.1510	-0.7596	24.82	-0.08	-0.050			
0.0240	1537.84	4.1500	4.1500	-0.7617	24.82	-0.08	-0.050			
0.0248	1586.71	4.1490	4.1492	-0.7629	24.83	-0.07	-0.050			
0.0256	1635.62	4.1480	4.1481	-0.7649	24.85	-0.05	-0.050			
0.0263	1685.72	4.1470	4.1470	-0.7696	24.86	-0.04	-0.050			
0.0271	1734.96	4.1460	4.1459	-0.7711	24.86	-0.04	-0.050			
0.0279	1784.35	4.1450	4.1449	-0.7720	24.87	-0.03	-0.050			
0.0286	1833.45	4.1440	4.1440	-0.7720	24.88	-0.02	-0.050			
0.0294	1883.06	4.1430	4.1431	-0.7741	24.89	-0.01	-0.050			
0.0302	1932.34	4.1420	4.1421	-0.7762	24.91	0.01	-0.050			
0.0310	1981.54	4.1410	4.1409	-0.7802	24.92	0.02	-0.050			
0.0317	2031.29	4.1400	4.1402	-0.7820	24.93	0.03	-0.050			
0.0325	2081.32	4.1390	4.1390	-0.7847	24.94	0.04	-0.050			
0.0333	2132.16	4.1380	4.1380	-0.7870	24.95	0.05	-0.050			
0.0341	2182.80	4.1370	4.1370	-0.7898	24.96	0.06	-0.050			
0.0349	2233.81	4.1360	4.1361	-0.7911	24.97	0.07	-0.050			
0.0357	2284.34	4.1350	4.1349	-0.7917	24.98	0.08	-0.050			
0.0365	2335.02	4.1340	4.1340	-0.7940	24.98	0.08	-0.050			
0.0373	2385.50	4.1330	4.1329	-0.7967	24.98	0.08	-0.050			
0.0381	2437.09	4.1320	4.1320	-0.7984	25.01	0.11	-0.050			
0.0389	2488.84	4.1310	4.1311	-0.7992	25.01	0.11	-0.050			
0.0397	2540.11	4.1300	4.1301	-0.7987	25.02	0.12	-0.050	0.445	0.524	
0.0405	2591.99	4.1290	4.1290	-0.8018	25.02	0.12	-0.050			
0.0413	2642.95	4.1280	4.1280	-0.8029	25.02	0.12	-0.050			
0.0421	2694.42	4.1270	4.1269	-0.8030	25.02	0.12	-0.050			
0.0429	2746.03	4.1260	4.1258	-0.8043	25.02	0.12	-0.050			
0.0437	2797.63	4.1250	4.1250	-0.8041	25.01	0.11	-0.050			
0.0445	2848.84	4.1240	4.1241	-0.8056	25.01	0.11	-0.050			
0.0453	2900.52	4.1230	4.1232	-0.8053	25.00	0.10	-0.050			
0.0461	2951.79	4.1220	4.1219	-0.8048	25.01	0.11	-0.050			
0.0469	3003.04	4.1210	4.1210	-0.8044	24.99	0.09	-0.050			
0.0477	3054.98	4.1200	4.1200	-0.8052	24.98	0.08	-0.050			
0.0485	3106.91	4.1190	4.1189	-0.8056	24.98	0.08	-0.050			
0.0494	3158.87	4.1180	4.1179	-0.8059	24.97	0.07	-0.050			
0.0502	3209.93	4.1170	4.1171	-0.8075	24.97	0.07	-0.050			
0.0510	3261.09	4.1160	4.1160	-0.8094	24.96	0.06	-0.050			
0.0518	3313.07	4.1150	4.1149	-0.8101	24.96	0.06	-0.050			
0.0526	3364.81	4.1140	4.1143	-0.8084	24.96	0.06	-0.050			
0.0534	3416.58	4.1130	4.1130	-0.8094	24.95	0.05	-0.050			
0.0542	3468.64	4.1120	4.1120	-0.8094	24.95	0.05	-0.050			
0.0550	3520.75	4.1110	4.1111	-0.8116	24.95	0.05	-0.050			
0.0558	3572.35	4.1100	4.1099	-0.8123	24.94	0.04	-0.050			
0.0566	3624.16	4.1090	4.1089	-0.8130	24.95	0.05	-0.050			
0.0574	3675.57	4.1080	4.1078	-0.8136	24.95	0.05	-0.050			
0.0582	3727.71	4.1070	4.1071	-0.8161	24.96	0.06	-0.050			
0.0591	3779.92	4.1060	4.1061	-0.8181	24.96	0.06	-0.050			
0.0599	3832.00	4.1050	4.1051	-0.8202	24.96	0.06	-0.050	0.548	0.515	
0.0607	3884.17	4.1040	4.1040	-0.8219	24.96	0.06	-0.050			
0.0615	3937.75	4.1030	4.1029	-0.8246	24.96	0.06	-0.050			
0.0624	3990.65	4.1020	4.1018	-0.8260	24.98	0.08	-0.050			
0.0632	4043.53	4.1010	4.1011	-0.8275	24.97	0.07	-0.050			
0.0640	4096.56	4.1000	4.1000	-0.8294	24.98	0.08	-0.050			
0.0648	4149.82	4.0990	4.0990	-0.8310	24.98	0.08	-0.050			
0.0657	4203.16	4.0980	4.0980	-0.8312	24.98	0.08	-0.050			
0.0665	4256.49	4.0970	4.0971	-0.8294	24.98	0.08	-0.050			
0.0673	4310.07	4.0960	4.0960	-0.8306	24.98	0.08	-0.050			
0.0682	4363.41	4.0950	4.0949	-0.8312	24.98	0.08	-0.050			
0.0690	4417.43	4.0940	4.0941	-0.8341	24.97	0.07	-0.050			
0.0699	4471.04	4.0930	4.0929	-0.8330	24.96	0.06	-0.050			
0.0707	4524.64	4.0920	4.0920	-0.8305	24.96	0.06	-0.050			
0.0715	4577.96	4.0910	4.0909	-0.8284	24.96	0.06	-0.050			
0.0724	4630.76	4.0900	4.0900	-0.8295	24.94	0.04	-0.050			
0.0732	4683.41	4.0890	4.0892	-0.8297	24.94	0.04	-0.050			
0.0740	4735.90	4.0880	4.0880	-0.8297	24.94	0.04	-0.050			
0.0748	4788.45	4.0870	4.0870	-0.8305	24.93	0.03	-0.050			
0.0756	4841.13	4.0860	4.0859	-0.8317	24.93	0.03	-0.050			
0.0765	4894.17	4.0850	4.0850	-0.8330	24.92	0.02	-0.050			
0.0773	4947.41	4.0840	4.0839	-0.8338	24.90	0.00	-0.050			
0.0781	5000.58	4.0830	4.0831	-0.8364	24.90	0.00	-0.050			
0.0790	5054.02	4.0820	4.0819	-0.8373	24.90	0.00	-0.050			
0.0798	5107.78	4.0810	4.0808	-0.8386	24.90	-0.00	-0.050			
0.0806	5161.41	4.0800	4.0800	-0.8401	24.89	-0.01	-0.050			
0.0815	5215.41	4.0790	4.0791	-0.8416	24.88	-0.02	-0.050			
0.0823	5269.42	4.0780	4.0781	-0.8453	24.88	-0.02	-0.050			
0.0832	5323.89	4.0770	4.0771	-0.8478	24.88	-0.02	-0.050			
0.0840	5378.57	4.0760	4.0760	-0.8492	24.88	-0.02	-0.050			
0.0849	5432.67	4.0750	4.0749	-0.8512	24.88	-0.02	-0.050			
0.0857	5487.38	4.0740	4.0741	-0.8533	24.88	-0.02	-0.050			
0.0866	5543.06	4.0730	4.0730	-0.8532	24.88	-0.02	-0.050			
0.0875	5598.31	4.0720	4.0718	-0.8540	24.86	-0.04	-0.050			
0.0883	5653.06	4.0710	4.0711	-0.8538	24.87	-0.03	-0.050			
0.0892	5707.03	4.0700	4.0699	-0.8520	24.86	-0.04	-0.050			
0.0900	5762.11	4.0690	4.0689	-0.8515	24.86	-0.04	-0.050			
0.0909	5816.70	4.0680	4.0680	-0.8509	24.86	-0.04	-0.050			
0.0917	5870.46	4.0670	4.0671	-0.8519	24.87	-0.03	-0.050			
0.0926	5925.07	4.0660	4.0661	-0.8534	24.87	-0.03	-0.050			
0.0934	5979.83	4.0650	4.0649	-0.8536	24.87	-0.03	-0.050			
0.0943	6034.58	4.0640	4.0641	-0.8531	24.88	-0.02	-0.050			
0.0951	6088.98	4.0630	4.0629	-0.8527	24.88	-0.02	-0.050			
0.0960	6143.14	4.0620	4.0620	-0.8521	24.88	-0.02	-0.050			
0.0968	6198.10	4.0610	4.0611	-0.8527	24.88	-0.02	-0.050			
0.0977	6252.69	4.0600	4.0600	-0.8529	24.88	-0.02	-0.050			
0.0985	6306.51	4.0590	4.0590	-0.8542	24.89	-0.01	-0.050			
0.0994	6360.66	4.0580	4.0580	-0.8534	24.90	0.00	-0.050			
0.1002	6415.51	4.0570	4.0570	-0.8541	24.90	0.00	-0.050	0.273	0.521	
0.1011	6470.49	4.0560	4.0563	-0.8546	24.90	0.00	-0.050			
0.1020	6525.91	4.0550	4.0550	-0.8561	24.90	0.00	-0.050			
0.1028	6580.63	4.0540	4.0538	-0.8545	24.89	-0.01	-0.050			
0.1037	6635.59	4.0530	4.0529	-0.8568	24.89	-0.01	-0.050			
0.1045	6690.62	4.0520	4.0520	-0.8562	24.88	-0.02	-0.050			
0.1054	6744.83	4.0510	4.0508	-0.8585	24.88	-0.02	-0.050			
0.1062	6799.44	4.0500	4.0500	-0.8599	24.88	-0.02	-0.050			
0.1071	6854.53	4.0490	4.0489	-0.8610	24.88	-0.02	-0.050			
0.1080	6909.41	4.0480	4.0483	-0.8630	24.88	-0.02	-0.050			
0.1088	6964.00	4.0470	4.0470	-0.8622	24.88	-0.02	-0.050			
0.1097	7019.34	4.0460	4.0460	-0.8636	24.88	-0.02	-0.050			
0.1105	7075.05	4.0450	4.0449	-0.8659	24.88	-0.02	-0.050			
0.1114	7130.41	4.0440	4.0439	-0.8692	24.90	-0.00	-0.050			
0.1123	7185.64	4.0430	4.0429	-0.8707	24.90	0.00	-0.050			
0.1131	7241.35	4.0420	4.0420	-0.8738	24.90	0.00	-0.050			
0.1140	7297.64	4.0410	4.0411	-0.8751	24.90	0.00	-0.050			
0.1149	7354.33	4.0400	4.0403	-0.8756	24.90	0.00	-0.050			
0.1158	7410.73	4.0390	4.0390	-0.8752	24.90	0.00	-0.050			
0.1167	7466.83	4.0380	4.0380	-0.8761	24.91	0.01	-0.050			
0.1176	7523.73	4.0370	4.0371	-0.8787	24.92	0.02	-0.050			
0.1184	7580.28	4.0360	4.0360	-0.8804	24.93	0.03	-0.050			
0.1193	7636.62	4.0350	4.0349	-0.8815	24.92	0.02	-0.050			
0.1202	7692.69	4.0340	4.0340	-0.8843	24.93	0.03	-0.050			
0.1211	7748.97	4.0330	4.0331	-0.8836	24.93	0.03	-0.050			
0.1220	7805.62	4.0320	4.0323	-0.8828	24.94	0.04	-0.050			
0.1228	7862.28	4.0310	4.0311	-0.8816	24.94	0.04	-0.050			
0.1237	7918.54	4.0300	4.0298	-0.8825	24.94	0.04	-0.050			
0.1246	7975.12	4.0290	4.0291	-0.8843	24.94	0.04	-0.050			
0.1255	8031.86	4.0280	4.0277	-0.8848	24.94	0.04	-0.050			
0.1264	8087.99	4.0270	4.0270	-0.8870	24.93	0.03	-0.050			
0.1273	8145.02	4.0260	4.0260	-0.8869	24.93	0.03	-0.050			
0.1282	8201.83	4.0250	4.0250	-0.8873	24.93	0.03	-0.050			
0.1290	8258.63	4.0240	4.0242	-0.8852	24.93	0.03	-0.050			
0.1299	8315.60	4.0230	4.0230	-0.8862	24.91	0.01	-0.050			
0.1308	8372.79	4.0220	4.0218	-0.8865	24.90	0.00	-0.050			
0.1317	8430.10	4.0210	4.0209	-0.8883	24.90	0.00	-0.050			
0.1326	8487.15	4.0200	4.0199	-0.8888	24.90	-0.00	-0.050			
0.1335	8543.03	4.0190	4.0191	-0.8900	24.89	-0.01	-0.050			
0.1344	8599.81	4.0180	4.0179	-0.8903	24.88	-0.02	-0.050			
0.1353	8656.44	4.0170	4.0170	-0.8901	24.87	-0.03	-0.050			
0.1361	8713.31	4.0160	4.0160	-0.8890	24.86	-0.04	-0.050			
0.1370	8769.95	4.0150	4.0151	-0.8904	24.86	-0.04	-0.050			
0.1379	8826.74	4.0140	4.0138	-0.8906	24.85	-0.05	-0.050			
0.1388	8884.78	4.0130	4.0130	-0.8932	24.85	-0.05	-0.050			
0.1397	8941.86	4.0120	4.0119	-0.8944	24.85	-0.05	-0.050	0.476	0.588	
0.1406	8998.55	4.0110	4.0111	-0.8961	24.84	-0.06	-0.050			
0.1415	9055.69	4.0100	4.0099	-0.8973	24.85	-0.05	-0.050			
0.1424	9112.79	4.0090	4.0091	-0.8982	24.85	-0.05	-0.050			
0.1433	9170.39	4.0080	4.0080	-0.8999	24.85	-0.05	-0.050			
0.1442	9228.17	4.0070	4.0070	-0.9010	24.86	-0.04	-0.050			
0.1451	9286.31	4.0060	4.0059	-0.9016	24.87	-0.03	-0.050			
0.1460	9344.80	4.0050	4.0050	-0.9048	24.89	-0.01	-0.050			
0.1469	9402.18	4.0040	4.0040	-0.9085	24.90	0.00	-0.050			
0.1478	9460.33	4.0030	4.0030	-0.9101	24.91	0.01	-0.050			
0.1487	9518.84	4.0020	4.0019	-0.9098	24.93	0.03	-0.050			
0.1496	9577.04	4.0010	4.0012	-0.9086	24.93	0.03	-0.050			
0.1506	9635.28	4.0000	4.0000	-0.9098	24.94	0.04	-0.050			
0.1515	9693.39	3.9990	3.9989	-0.9107	24.94	0.04	-0.050			
0.1524	9752.15	3.9980	3.9981	-0.9140	24.94	0.04	-0.050			
0.1533	9810.40	3.9970	3.9969	-0.9164	24.94	0.04	-0.050			
0.1542	9869.14	3.9960	3.9959	-0.9180	24.94	0.04	-0.050			
0.1551	9927.88	3.9950	3.9951	-0.9181	24.94	0.04	-0.050			
0.1560	9986.85	3.9940	3.9941	-0.9179	24.94	0.04	-0.050			
0.1570	10045.91	3.9930	3.9931	-0.9189	24.95	0.05	-0.050			
0.1579	10104.57	3.9920	3.9919	-0.9193	24.96	0.06	-0.050			
0.1588	10163.11	3.9910	3.9909	-0.9196	24.96	0.06	-0.050			
0.1597	10222.04	3.9900	3.9901	-0.9222	24.96	0.06	-0.050	0.435	0.546	
0.1606	10281.04	3.9890	3.9890	-0.9241	24.96	0.06	-0.050			
0.1616	10340.46	3.9880	3.9880	-0.9247	24.96	0.06	-0.050			
0.1625	10399.93	3.9870	3.9871	-0.9256	24.96	0.06	-0.050			
0.1634	10459.26	3.9860	3.9860	-0.9253	24.96	0.06	-0.050			
0.1644	10518.62	3.9850	3.9850	-0.9256	24.96	0.06	-0.050			
0.1653	10577.55	3.9840	3.9840	-0.9243	24.96	0.06	-0.050			
0.1662	10636.92	3.9830	3.9829	-0.9250	24.96	0.06	-0.050			
0.1671	10697.10	3.9820	3.9819	-0.9275	24.96	0.06	-0.050			
0.1681	10756.11	3.9810	3.9811	-0.9291	24.96	0.06	-0.050			
0.1690	10815.08	3.9800	3.9800	-0.9277	24.96	0.06	-0.050			
0.1699	10874.88	3.9790	3.9791	-0.9272	24.96	0.06	-0.050			
0.1708	10933.70	3.9780	3.9781	-0.9273	24.96	0.06	-0.050			
0.1718	10992.77	3.9770	3.9770	-0.9281	24.96	0.06	-0.050			
0.1727	11052.73	3.9760	3.9760	-0.9294	24.95	0.05	-0.050			
0.1736	11111.58	3.9750	3.9750	-0.9314	24.96	0.06	-0.050			
0.1745	11171.16	3.9740	3.9739	-0.9337	24.96	0.06	-0.050			
0.1755	11230.96	3.9730	3.9730	-0.9347	24.95	0.05	-0.050			
0.1764	11290.59	3.9720	3.9721	-0.9340	24.95	0.05	-0.050			
0.1773	11350.08	3.9710	3.9712	-0.9352	24.95	0.05	-0.050			
0.1783	11409.97	3.9700	3.9701	-0.9361	24.94	0.04	-0.050			
0.1792	11469.95	3.9690	3.9689	-0.9380	24.95	0.05	-0.050			
0.1802	11530.49	3.9680	3.9678	-0.9406	24.94	0.04	-0.050	0.515	0.613	
0.1811	11590.89	3.9670	3.9669	-0.9439	24.95	0.05	-0.050			
0.1821	11651.34	3.9660	3.9660	-0.9450	24.94	0.04	-0.050			
0.1830	11712.11	3.9650	3.9651	-0.9456	24.94	0.04	-0.050			
0.1839	11772.52	3.9640	3.9640	-0.9476	24.94	0.04	-0.050			
0.1849	11833.24	3.9630	3.9629	-0.9479	24.94	0.04	-0.050			
0.1858	11894.20	3.9620	3.9620	-0.9477	24.94	0.04	-0.050			
0.1868	11954.82	3.9610	3.9610	-0.9488	24.93	0.03	-0.050			
0.1877	12015.66	3.9600	3.9599	-0.9502	24.94	0.04	-0.050			
0.1887	12076.62	3.9590	3.9591	-0.9537	24.94	0.04	-0.050			
0.1896	12137.41	3.9580	3.9580	-0.9529	24.94	0.04	-0.050			
0.1906	12198.88	3.9570	3.9571	-0.9527	24.93	0.03	-0.050			
0.1916	12260.23	3.9560	3.9560	-0.9518	24.94	0.04	-0.050			
0.1925	12321.35	3.9550	3.9549	-0.9503	24.94	0.04	-0.050			
0.1935	12382.97	3.9540	3.9540	-0.9505	24.93	0.03	-0.050			
0.1944	12443.73	3.9530	3.9530	-0.9501	24.93	0.03	-0.050			
0.1954	12504.39	3.9520	3.9519	-0.9518	24.93	0.03	-0.050			
0.1963	12565.24	3.9510	3.9510	-0.9500	24.93	0.03	-0.050			
0.1973	12625.57	3.9500	3.9501	-0.9516	24.92	0.02	-0.050			
0.1982	12686.19	3.9490	3.9493	-0.9518	24.92	0.02	-0.050			
0.1992	12746.70	3.9480	3.9480	-0.9521	24.92	0.02	-0.050			
0.2001	12807.24	3.9470	3.9469	-0.9533	24.91	0.01	-0.050	0.445	0.598	
0.2011	12868.23	3.9460	3.9458	-0.9545	24.90	0.00	-0.050			
0.2020	12929.15	3.9450	3.9449	-0.9577	24.90	0.00	-0.050			
0.2030	12989.93	3.9440	3.9439	-0.9577	24.90	0.00	-0.050			
0.2039	13051.38	3.9430	3.9431	-0.9595	24.88	-0.02	-0.050			
0.2049	13112.97	3.9420	3.9420	-0.9605	24.90	0.00	-0.050			
0.2058	13174.01	3.9410	3.9409	-0.9626	24.90	0.00	-0.050			
0.2068	13235.88	3.9400	3.9400	-0.9628	24.91	0.01	-0.050			
0.2078	13297.76	3.9390	3.9391	-0.9638	24.92	0.02	-0.050			
0.2088	13360.53	3.9380	3.9381	-0.9686	24.93	0.03	-0.050			
0.2097	13423.02	3.9370	3.9370	-0.9708	24.93	0.03	-0.050			
0.2107	13486.02	3.9360	3.9360	-0.9711	24.92	0.02	-0.050			
0.2117	13548.87	3.9350	3.9350	-0.9687	24.90	0.00	-0.050			
0.2127	13610.91	3.9340	3.9340	-0.9667	24.90	0.00	-0.050			
0.2136	13672.62	3.9330	3.9330	-0.9647	24.90	0.00	-0.050			
0.2146	13734.19	3.9320	3.9319	-0.9638	24.90	0.00	-0.050			
0.2155	13795.07	3.9310	3.9311	-0.9641	24.90	0.00	-0.050			
0.2165	13857.04	3.9300	3.9300	-0.9633	24.90	0.00	-0.050			
0.2175	13919.00	3.9290	3.9289	-0.9623	24.90	0.00	-0.050			
0.2184	13980.46	3.9280	3.9279	-0.9624	24.91	0.01	-0.050			
0.2194	14041.51	3.9270	3.9273	-0.9611	24.93	0.03	-0.050			
0.2204	14102.71	3.9260	3.9260	-0.9605	24.93	0.03	-0.050	0.456	0.537	
0.2213	14163.60	3.9250	3.9248	-0.9610	24.93	0.03	-0.050			
0.2223	14225.19	3.9240	3.9239	-0.9612	24.93	0.03	-0.050			
0.2232	14286.04	3.9230	3.9230	-0.9638	24.93	0.03	-0.050			
0.2242	14347.75	3.9220	3.9220	-0.9649	24.93	0.03	-0.050			
0.2251	14409.12	3.9210	3.9212	-0.9649	24.93	0.03	-0.050			
0.2261	14471.53	3.9200	3.9203	-0.9665	24.93	0.03	-0.050			
0.2271	14533.02	3.9190	3.9190	-0.9677	24.93	0.03	-0.050			
0.2280	14594.78	3.9180	3.9180	-0.9690	24.92	0.02	-0.050			
0.2290	14657.24	3.9170	3.9169	-0.9718	24.92	0.02	-0.050			
0.2300	14720.04	3.9160	3.9159	-0.9757	24.93	0.03	-0.050			
0.2310	14782.90	3.9150	3.9151	-0.9766	24.93	0.03	-0.050			
0.2320	14845.20	3.9140	3.9140	-0.9758	24.93	0.03	-0.050			
0.2329	14907.38	3.9130	3.9133	-0.9775	24.94	0.04	-0.050			
0.2339	14969.98	3.9120	3.9119	-0.9780	24.94	0.04	-0.050			
0.2349	15032.48	3.9110	3.9110	-0.9791	24.94	0.04	-0.050			
0.2359	15095.37	3.9100	3.9101	-0.9810	24.94	0.04	-0.050			
0.2368	15158.13	3.9090	3.9091	-0.9852	24.94	0.04	-0.050			
0.2378	15221.33	3.9080	3.9079	-0.9847	24.94	0.04	-0.050			
0.2388	15284.50	3.9070	3.9071	-0.9855	24.93	0.03	-0.050			
0.2398	15347.57	3.9060	3.9063	-0.9856	24.94	0.04	-0.050			
0.2408	15410.66	3.9050	3.9052	-0.9860	24.94	0.04	-0.050			
0.2418	15474.43	3.9040	3.9040	-0.9860	24.94	0.04	-0.050			
0.2428	15537.21	3.9030	3.9030	-0.9863	24.94	0.04	-0.050			
0.2438	15600.37	3.9020	3.9020	-0.9882	24.93	0.03	-0.050			
0.2448	15664.30	3.9010	3.9010	-0.9888	24.93	0.03	-0.050			
0.2457	15727.89	3.9000	3.9000	-0.9887	24.93	0.03	-0.050			
0.2467	15791.32	3.8990	3.8992	-0.9884	24.93	0.03	-0.050			
0.2477	15854.40	3.8980	3.8980	-0.9880	24.92	0.02	-0.050			
0.2487	15917.32	3.8970	3.8970	-0.9885	24.90	0.00	-0.050			
0.2497	15980.21	3.8960	3.8959	-0.9906	24.89	-0.01	-0.050			
0.2507	16043.53	3.8950	3.8950	-0.9921	24.90	-0.00	-0.050			
0.2517	16107.00	3.8940	3.8940	-0.9924	24.88	-0.02	-0.050			
0.2527	16170.42	3.8930	3.8931	-0.9910	24.87	-0.03	-0.050			
0.2537	16234.12	3.8920	3.8922	-0.9913	24.86	-0.04	-0.050			
0.2546	16297.56	3.8910	3.8910	-0.9906	24.87	-0.03	-0.050			
0.2556	16360.94	3.8900	3.8899	-0.9911	24.86	-0.04	-0.050			
0.2566	16424.24	3.8890	3.8891	-0.9910	24.85	-0.05	-0.050			
0.2576	16488.09	3.8880	3.8880	-0.9948	24.85	-0.05	-0.050			
0.2586	16551.80	3.8870	3.8871	-0.9957	24.83	-0.07	-0.050			
0.2596	16615.66	3.8860	3.8860	-0.9950	24.82	-0.08	-0.050			
0.2606	16679.17	3.8850	3.8853	-0.9945	24.82	-0.08	-0.050	0.484	0.413	
0.2616	16743.17	3.8840	3.8840	-0.9952	24.80	-0.10	-0.050			
0.2626	16806.81	3.8830	3.8830	-0.9941	24.80	-0.10	-0.050			
0.2636	16870.69	3.8820	3.8819	-0.9947	24.80	-0.10	-0.050			
0.2646	16934.35	3.8810	3.8811	-0.9965	24.79	-0.11	-0.050			
0.2656	16998.09	3.8800	3.8800	-0.9963	24.80	-0.10	-0.050			
0.2666	17061.59	3.8790	3.8790	-0.9956	24.80	-0.10	-0.050			
0.2676	17125.01	3.8780	3.8782	-0.9952	24.81	-0.09	-0.050			
0.2686	17188.81	3.8770	3.8771	-0.9934	24.83	-0.07	-0.050			
0.2696	17252.29	3.8760	3.8760	-0.9937	24.85	-0.05	-0.050			
0.2706	17316.22	3.8750	3.8750	-0.9950	24.86	-0.04	-0.050			
0.2716	17379.80	3.8740	3.8741	-0.9968	24.86	-0.04	-0.050			
0.2726	17443.87	3.8730	3.8730	-0.9980	24.87	-0.03	-0.050			
0.2736	17507.84	3.8720	3.8720	-0.9981	24.89	-0.01	-0.050			
0.2746	17571.25	3.8710	3.8711	-0.9979	24.90	-0.00	-0.050			
0.2755	17634.94	3.8700	3.8700	-0.9971	24.91	0.01	-0.050			
0.2765	17698.99	3.8690	3.8691	-0.9969	24.93	0.03	-0.050			
0.2775	17762.69	3.8680	3.8680	-0.9962	24.94	0.04	-0.050			
0.2785	17826.72	3.8670	3.8669	-0.9974	24.95	0.05	-0.050			
0.2795	17890.98	3.8660	3.8660	-0.9980	24.96	0.06	-0.050			
0.2805	17954.79	3.8650	3.8649	-0.9982	24.98	0.08	-0.050	0.368	0.571	
0.2815	18018.52	3.8640	3.8642	-0.9981	24.98	0.08	-0.050			
0.2825	18082.28	3.8630	3.8631	-0.9985	24.99	0.09	-0.050			
0.2835	18146.33	3.8620	3.8620	-0.9978	25.00	0.10	-0.050			
0.2845	18210.18	3.8610	3.8611	-0.9964	25.01	0.11	-0.050			
0.2855	18273.27	3.8600	3.8599	-0.9997	25.01	0.11	-0.050			
0.2865	18337.82	3.8590	3.8590	-0.9999	25.00	0.10	-0.050			
0.2875	18402.06	3.8580	3.8580	-0.9997	24.99	0.09	-0.050			
0.2885	18465.96	3.8570	3.8571	-1.0002	24.99	0.09	-0.050			
0.2895	18529.51	3.8560	3.8560	-0.9998	24.99	0.09	-0.050			
0.2905	18593.67	3.8550	3.8550	-0.9994	24.98	0.08	-0.050			
0.2915	18657.39	3.8540	3.8540	-0.9988	24.99	0.09	-0.050			
0.2925	18721.81	3.8530	3.8529	-1.0014	24.99	0.09	-0.050			
0.2935	18786.23	3.8520	3.8519	-1.0005	24.99	0.09	-0.050			
0.2945	18850.16	3.8510	3.8510	-1.0007	24.98	0.08	-0.050			
0.2955	18914.88	3.8500	3.8502	-1.0003	24.98	0.08	-0.050			
0.2965	18978.67	3.8490	3.8488	-0.9999	24.98	0.08	-0.050			
0.2975	19042.85	3.8480	3.8480	-0.9990	25.00	0.10	-0.050			
0.2985	19106.34	3.8470	3.8471	-0.9996	24.99	0.09	-0.050			
0.2995	19170.24	3.8460	3.8461	-1.0007	25.00	0.10	-0.050			
0.3005	19234.26	3.8450	3.8450	-0.9994	24.99	0.09	-0.050	0.436	0.516	
0.3015	19298.40	3.8440	3.8440	-0.9987	24.99	0.09	-0.050			
0.3025	19362.35	3.8430	3.8433	-0.9983	24.99	0.09	-0.050			
0.3035	19426.29	3.8420	3.8420	-0.9973	24.99	0.09	-0.050			
0.3045	19489.88	3.8410	3.8411	-0.9965	24.98	0.08	-0.050			
0.3055	19553.06	3.8400	3.8399	-0.9940	24.98	0.08	-0.050			
0.3065	19617.48	3.8390	3.8390	-0.9963	24.98	0.08	-0.050			
0.3075	19681.68	3.8380	3.8380	-0.9940	24.97	0.07	-0.050			
0.3085	19745.07	3.8370	3.8371	-0.9927	24.96	0.06	-0.050			
0.3095	19808.96	3.8360	3.8363	-0.9922	24.96	0.06	-0.050			
0.3105	19872.54	3.8350	3.8350	-0.9916	24.94	0.04	-0.050			
0.3115	19936.63	3.8340	3.8339	-0.9892	24.94	0.04	-0.050			
0.3125	19999.66	3.8330	3.8330	-0.9869	24.94	0.04	-0.050			
0.3135	20063.20	3.8320	3.8318	-0.9865	24.93	0.03	-0.050			
0.3145	20126.84	3.8310	3.8311	-0.9822	24.92	0.02	-0.050			
0.3155	20189.71	3.8300	3.8299	-0.9793	24.90	0.00	-0.050			
0.3164	20251.43	3.8290	3.8292	-0.9775	24.90	-0.00	-0.050			
0.3174	20313.74	3.8280	3.8279	-0.9754	24.89	-0.01	-0.050			
0.3184	20375.16	3.8270	3.8271	-0.9735	24.89	-0.01	-0.050			
0.3193	20437.42	3.8260	3.8261	-0.9725	24.88	-0.02	-0.050			
0.3203	20499.88	3.8250	3.8250	-0.9724	24.88	-0.02	-0.050	0.408	0.507	
0.3213	20562.19	3.8240	3.8240	-0.9712	24.88	-0.02	-0.050			
0.3222	20623.90	3.8230	3.8230	-0.9686	24.86	-0.04	-0.050			
0.3232	20686.13	3.8220	3.8222	-0.9672	24.86	-0.04	-0.050			
0.3242	20747.79	3.8210	3.8207	-0.9648	24.86	-0.04	-0.050			
0.3251	20809.50	3.8200	3.8202	-0.9634	24.86	-0.04	-0.050			
0.3261	20871.12	3.8190	3.8190	-0.9609	24.85	-0.05	-0.050			
0.3271	20932.51	3.8180	3.8179	-0.9617	24.85	-0.05	-0.050			
0.3280	20994.35	3.8170	3.8171	-0.9579	24.85	-0.05	-0.050			
0.3290	21056.27	3.8160	3.8159	-0.9561	24.85	-0.05	-0.050			
0.3300	21117.79	3.8150	3.8150	-0.9529	24.85	-0.05	-0.050			
0.3309	21179.75	3.8140	3.8141	-0.9506	24.86	-0.04	-0.050			
0.3319	21240.62	3.8130	3.8129	-0.9456	24.86	-0.04	-0.050			
0.3328	21301.32	3.8120	3.8120	-0.9409	24.86	-0.04	-0.050			
0.3338	21361.84	3.8110	3.8109	-0.9358	24.86	-0.04	-0.050			
0.3347	21420.87	3.8100	3.8099	-0.9333	24.86	-0.04	-0.050			
0.3356	21480.12	3.8090	3.8091	-0.9269	24.86	-0.04	-0.050			
0.3365	21539.11	3.8080	3.8081	-0.9230	24.86	-0.04	-0.050			
0.3375	21598.04	3.8070	3.8072	-0.9193	24.86	-0.04	-0.050			
0.3384	21656.95	3.8060	3.8060	-0.9146	24.86	-0.04	-0.050			
0.3393	21715.82	3.8050	3.8049	-0.9097	24.86	-0.04	-0.050			
0.3402	21773.73	3.8040	3.8040	-0.9047	24.85	-0.05	-0.050			
0.3411	21832.03	3.8030	3.8029	-0.8988	24.86	-0.04	-0.050			
0.3420	21888.99	3.8020	3.8020	-0.8943	24.86	-0.04	-0.050			
0.3429	21946.09	3.8010	3.8009	-0.8889	24.87	-0.03	-0.050			
0.3438	22003.07	3.8000	3.8001	-0.8834	24.87	-0.03	-0.050			
0.3447	22059.50	3.7990	3.7989	-0.8771	24.88	-0.02	-0.050			
0.3456	22115.48	3.7980	3.7981	-0.8711	24.88	-0.02	-0.050			
0.3464	22171.55	3.7970	3.7970	-0.8652	24.88	-0.02	-0.050			
0.3473	22227.59	3.7960	3.7960	-0.8609	24.88	-0.02	-0.050			
0.3482	22282.26	3.7950	3.7949	-0.8542	24.88	-0.02	-0.050			
0.3490	22336.63	3.7940	3.7940	-0.8477	24.88	-0.02	-0.050			
0.3499	22390.80	3.7930	3.7929	-0.8417	24.88	-0.02	-0.050			
0.3507	22444.05	3.7920	3.7920	-0.8346	24.88	-0.02	-0.050			
0.3515	22497.36	3.7910	3.7910	-0.8281	24.88	-0.02	-0.050			
0.3523	22549.37	3.7900	3.7899	-0.8205	24.88	-0.02	-0.050			
0.3532	22601.96	3.7890	3.7890	-0.8143	24.88	-0.02	-0.050			
0.3540	22654.16	3.7880	3.7879	-0.8087	24.89	-0.01	-0.050			
0.3548	22705.45	3.7870	3.7869	-0.8028	24.89	-0.01	-0.050			
0.3556	22756.90	3.7860	3.7861	-0.7984	24.90	0.00	-0.050			
0.3564	22808.08	3.7850	3.7849	-0.7923	24.90	0.00	-0.050			
0.3572	22857.95	3.7840	3.7840	-0.7885	24.90	0.00	-0.050			
0.3579	22908.04	3.7830	3.7832	-0.7828	24.90	0.00	-0.050			
0.3587	22957.48	3.7820	3.7820	-0.7770	24.92	0.02	-0.050			
0.3595	23006.98	3.7810	3.7810	-0.7716	24.93	0.03	-0.050			
0.3603	23056.53	3.7800	3.7799	-0.7682	24.93	0.03	-0.050	0.509	0.433	
0.3610	23105.37	3.7790	3.7789	-0.7634	24.94	0.04	-0.050			
0.3618	23154.01	3.7780	3.7779	-0.7600	24.94	0.04	-0.050			
0.3625	23202.51	3.7770	3.7769	-0.7549	24.94	0.04	-0.050			
0.3633	23250.30	3.7760	3.7761	-0.7501	24.94	0.04	-0.050			
0.3640	23297.62	3.7750	3.7749	-0.7464	24.94	0.04	-0.050			
0.3648	23345.27	3.7740	3.7741	-0.7433	24.94	0.04	-0.050			
0.3655	23392.86	3.7730	3.7730	-0.7393	24.94	0.04	-0.050			
0.3663	23440.62	3.7720	3.7720	-0.7370	24.94	0.04	-0.050			
0.3670	23487.27	3.7710	3.7709	-0.7327	24.95	0.05	-0.050			
0.3677	23533.82	3.7700	3.7700	-0.7300	24.95	0.05	-0.050			
0.3684	23580.58	3.7690	3.7690	-0.7287	24.95	0.05	-0.050			
0.3692	23626.76	3.7680	3.7681	-0.7261	24.95	0.05	-0.050			
0.3699	23672.45	3.7670	3.7671	-0.7241	24.96	0.06	-0.050			
0.3706	23718.22	3.7660	3.7659	-0.7228	24.94	0.04	-0.050			
0.3713	23763.56	3.7650	3.7651	-0.7245	24.95	0.05	-0.050			
0.3720	23809.04	3.7640	3.7642	-0.7230	24.94	0.04	-0.050			
0.3727	23855.24	3.7630	3.7629	-0.7243	24.94	0.04	-0.050			
0.3735	23901.67	3.7620	3.7619	-0.7257	24.94	0.04	-0.050			
0.3742	23947.98	3.7610	3.7609	-0.7265	24.95	0.05	-0.050			
0.3749	23994.38	3.7600	3.7599	-0.7281	24.96	0.06	-0.050			
0.3756	24040.74	3.7590	3.7591	-0.7294	24.95	0.05	-0.050			
0.3764	24087.17	3.7580	3.7580	-0.7316	24.95	0.05	-0.050			
0.3771	24134.14	3.7570	3.7571	-0.7342	24.96	0.06	-0.050			
0.3778	24181.32	3.7560	3.7559	-0.7370	24.96	0.06	-0.050			
0.3786	24228.29	3.7550	3.7551	-0.7397	24.95	0.05	-0.050			
0.3793	24275.60	3.7540	3.7540	-0.7430	24.95	0.05	-0.050			
0.3801	24323.48	3.7530	3.7529	-0.7472	24.95	0.05	-0.050	-0.122	0.537	
0.3808	24371.57	3.7520	3.7519	-0.7505	24.94	0.04	-0.050			
0.3816	24419.30	3.7510	3.7509	-0.7538	24.94	0.04	-0.050			
0.3823	24467.45	3.7500	3.7499	-0.7573	24.94	0.04	-0.050			
0.3831	24515.55	3.7490	3.7492	-0.7608	24.93	0.03	-0.050			
0.3838	24563.56	3.7480	3.7479	-0.7671	24.93	0.03	-0.050			
0.3846	24611.88	3.7470	3.7470	-0.7745	24.92	0.02	-0.050			
0.3853	24660.79	3.7460	3.7459	-0.7818	24.92	0.02	-0.050			
0.3861	24710.21	3.7450	3.7451	-0.7881	24.91	0.01	-0.050			
0.3869	24760.48	3.7440	3.7440	-0.7981	24.91	0.01	-0.050			
0.3877	24811.74	3.7430	3.7431	-0.8073	24.90	0.00	-0.050			
0.3885	24863.55	3.7420	3.7418	-0.8165	24.90	0.00	-0.050			
0.3893	24915.54	3.7410	3.7409	-0.8275	24.90	0.00	-0.050			
0.3901	24967.82	3.7400	3.7400	-0.8384	24.90	0.00	-0.050			
0.3910	25021.56	3.7390	3.7389	-0.8497	24.91	0.01	-0.050			
0.3918	25076.26	3.7380	3.7380	-0.8615	24.91	0.01	-0.050			
0.3927	25131.70	3.7370	3.7373	-0.8733	24.92	0.02	-0.050			
0.3936	25188.11	3.7360	3.7360	-0.8856	24.93	0.03	-0.050			
0.3945	25244.86	3.7350	3.7350	-0.8984	24.93	0.03	-0.050			
0.3954	25302.92	3.7340	3.7340	-0.9122	24.93	0.03	-0.050			
0.3963	25360.93	3.7330	3.7330	-0.9272	24.93	0.03	-0.050			
0.3972	25420.76	3.7320	3.7318	-0.9414	24.93	0.03	-0.050			
0.3981	25481.39	3.7310	3.7310	-0.9553	24.93	0.03	-0.050			
0.3991	25542.77	3.7300	3.7300	-0.9691	24.94	0.04	-0.050			
0.4001	25605.16	3.7290	3.7290	-0.9831	24.94	0.04	-0.050	0.529	0.485	
0.4011	25667.83	3.7280	3.7280	-0.9968	24.94	0.04	-0.050			
0.4021	25731.60	3.7270	3.7270	-1.0130	24.94	0.04	-0.050			
0.4031	25797.53	3.7260	3.7260	-1.0277	24.96	0.06	-0.050			
0.4041	25863.87	3.7250	3.7249	-1.0425	24.96	0.06	-0.050			
0.4052	25931.48	3.7240	3.7240	-1.0560	24.96	0.06	-0.050			
0.4062	25999.42	3.7230	3.7230	-1.0726	24.96	0.06	-0.050			
0.4073	26068.23	3.7220	3.7220	-1.0887	24.96	0.06	-0.050			
0.4084	26137.27	3.7210	3.7211	-1.1061	24.96	0.06	-0.050			
0.4095	26208.34	3.7200	3.7201	-1.1230	24.96	0.06	-0.050			
0.4106	26280.30	3.7190	3.7190	-1.1410	24.94	0.04	-0.050			
0.4118	26353.83	3.7180	3.7180	-1.1599	24.94	0.04	-0.050			
0.4129	26428.51	3.7170	3.7170	-1.1774	24.94	0.04	-0.050			
0.4141	26504.21	3.7160	3.7159	-1.1947	24.94	0.04	-0.050			
0.4153	26580.65	3.7150	3.7151	-1.2123	24.94	0.04	-0.050			
0.4165	26658.83	3.7140	3.7139	-1.2307	24.94	0.04	-0.050			
0.4178	26738.33	3.7130	3.7130	-1.2478	24.94	0.04	-0.050			
0.4191	26819.50	3.7120	3.7119	-1.2665	24.93	0.03	-0.050			
0.4203	26901.38	3.7110	3.7113	-1.2852	24.93	0.03	-0.050	0.371	0.529	
0.4216	26984.71	3.7100	3.7100	-1.3016	24.93	0.03	-0.050			
0.4230	27068.95	3.7090	3.7090	-1.3186	24.90	0.00	-0.050			
0.4243	27154.44	3.7080	3.7080	-1.3345	24.90	0.00	-0.050			
0.4256	27240.51	3.7070	3.7069	-1.3525	24.88	-0.02	-0.050			
0.4270	27328.39	3.7060	3.7060	-1.3707	24.88	-0.02	-0.050			
0.4284	27417.08	3.7050	3.7050	-1.3845	24.87	-0.03	-0.050			
0.4298	27506.19	3.7040	3.7041	-1.3984	24.86	-0.04	-0.050			
0.4312	27596.08	3.7030	3.7030	-1.4098	24.85	-0.05	-0.050			
0.4326	27686.76	3.7020	3.7021	-1.4238	24.85	-0.05	-0.050			
0.4340	27777.50	3.7010	3.7010	-1.4390	24.82	-0.08	-0.050			
0.4355	27870.18	3.7000	3.6999	-1.4558	24.80	-0.10	-0.050			
0.4369	27963.67	3.6990	3.6990	-1.4698	24.79	-0.11	-0.050			
0.4384	28058.18	3.6980	3.6981	-1.4853	24.78	-0.12	-0.050			
0.4399	28153.12	3.6970	3.6971	-1.5033	24.78	-0.12	-0.050	0.430	0.593	
0.4414	28249.70	3.6960	3.6962	-1.5184	24.78	-0.12	-0.050			
0.4429	28347.07	3.6950	3.6950	-1.5343	24.77	-0.13	-0.050			
0.4445	28444.99	3.6940	3.6940	-1.5528	24.77	-0.13	-0.050			
0.4460	28544.75	3.6930	3.6929	-1.5717	24.76	-0.14	-0.050			
0.4476	28645.00	3.6920	3.6920	-1.5919	24.77	-0.13	-0.050			
0.4492	28747.32	3.6910	3.6910	-1.6098	24.78	-0.12	-0.050			
0.4508	28851.22	3.6900	3.6899	-1.6294	24.79	-0.11	-0.050			
0.4524	28955.61	3.6890	3.6890	-1.6491	24.80	-0.10	-0.050			
0.4541	29062.40	3.6880	3.6879	-1.6666	24.83	-0.07	-0.050			
0.4558	29170.25	3.6870	3.6869	-1.6830	24.85	-0.05	-0.050			
0.4575	29279.16	3.6860	3.6860	-1.7036	24.86	-0.04	-0.050			
0.4592	29389.61	3.6850	3.6850	-1.7217	24.87	-0.03	-0.050			
0.4609	29500.12	3.6840	3.6841	-1.7402	24.88	-0.02	-0.050	0.084	0.592	
0.4627	29611.94	3.6830	3.6829	-1.7588	24.88	-0.02	-0.050			
0.4644	29723.80	3.6820	3.6821	-1.7787	24.89	-0.01	-0.050			
0.4662	29838.84	3.6810	3.6811	-1.7965	24.89	-0.01	-0.050			
0.4680	29954.29	3.6800	3.6800	-1.8153	24.88	-0.02	-0.050			
0.4698	30070.15	3.6790	3.6790	-1.8368	24.87	-0.03	-0.050			
0.4717	30187.74	3.6780	3.6779	-1.8572	24.86	-0.04	-0.050			
0.4735	30306.18	3.6770	3.6769	-1.8799	24.85	-0.05	-0.050			
0.4754	30426.72	3.6760	3.6760	-1.9025	24.85	-0.05	-0.050			
0.4773	30547.95	3.6750	3.6749	-1.9242	24.86	-0.04	-0.050			
0.4792	30670.98	3.6740	3.6739	-1.9477	24.87	-0.03	-0.050			
0.4812	30796.90	3.6730	3.6729	-1.9705	24.90	-0.00	-0.050	0.380	0.611	
0.4832	30923.53	3.6720	3.6721	-1.9958	24.92	0.02	-0.050			
0.4852	31053.48	3.6710	3.6709	-2.0188	24.94	0.04	-0.050			
0.4873	31184.13	3.6700	3.6700	-2.0415	24.94	0.04	-0.050			
0.4893	31316.03	3.6690	3.6689	-2.0685	24.94	0.04	-0.050			
0.4914	31449.60	3.6680	3.6679	-2.0923	24.94	0.04	-0.050			
0.4935	31584.27	3.6670	3.6670	-2.1145	24.91	0.01	-0.050			
0.4956	31718.46	3.6660	3.6661	-2.1403	24.90	-0.00	-0.050			
0.4977	31855.88	3.6650	3.6649	-2.1688	24.88	-0.02	-0.050			
0.4999	31993.39	3.6640	3.6640	-2.1984	24.86	-0.04	-0.050	0.576	0.682	
0.5021	32134.42	3.6630	3.6629	-2.2272	24.84	-0.06	-0.050			
0.5043	32276.95	3.6620	3.6621	-2.2567	24.82	-0.08	-0.050			
0.5066	32421.55	3.6610	3.6611	-2.2902	24.81	-0.09	-0.050			
0.5089	32567.70	3.6600	3.6600	-2.3179	24.80	-0.10	-0.050			
0.5112	32717.08	3.6590	3.6589	-2.3484	24.82	-0.08	-0.050			
0.5136	32868.30	3.6580	3.6579	-2.3818	24.83	-0.07	-0.050			
0.5160	33022.38	3.6570	3.6569	-2.4092	24.84	-0.06	-0.050			
0.5184	33177.80	3.6560	3.6560	-2.4433	24.86	-0.04	-0.050			
0.5209	33336.00	3.6550	3.6549	-2.4764	24.86	-0.04	-0.050			
0.5234	33495.71	3.6540	3.6541	-2.5088	24.87	-0.03	-0.050			
0.5259	33658.08	3.6530	3.6529	-2.5440	24.88	-0.02	-0.050			
0.5285	33821.58	3.6520	3.6519	-2.5776	24.88	-0.02	-0.050			
0.5311	33989.42	3.6510	3.6509	-2.6088	24.88	-0.02	-0.050			
0.5337	34157.10	3.6500	3.6500	-2.6385	24.88	-0.02	-0.050			
0.5364	34327.59	3.6490	3.6490	-2.6670	24.89	-0.01	-0.050			
0.5390	34498.78	3.6480	3.6478	-2.6968	24.88	-0.02	-0.050			
0.5417	34670.74	3.6470	3.6468	-2.7249	24.89	-0.01	-0.050			
0.5445	34846.55	3.6460	3.6460	-2.7524	24.90	0.00	-0.050			
0.5472	35023.56	3.6450	3.6449	-2.7808	24.90	0.00	-0.050			
0.5500	35202.70	3.6440	3.6440	-2.8182	24.89	-0.01	-0.050			
0.5529	35383.39	3.6430	3.6429	-2.8496	24.86	-0.04	-0.050			
0.5557	35567.30	3.6420	3.6418	-2.8833	24.85	-0.05	-0.050			
0.5586	35753.11	3.6410	3.6412	-2.9109	24.81	-0.09	-0.050			
0.5616	35940.25	3.6400	3.6400	-2.9445	24.80	-0.10	-0.050	0.401	0.563	
0.5645	36129.70	3.6390	3.6391	-2.9793	24.79	-0.11	-0.050			
0.5675	36319.41	3.6380	3.6379	-3.0128	24.78	-0.12	-0.050			
0.5705	36512.00	3.6370	3.6370	-3.0474	24.79	-0.11	-0.050			
0.5736	36708.65	3.6360	3.6361	-3.0789	24.81	-0.09	-0.050			
0.5767	36907.23	3.6350	3.6349	-3.1143	24.81	-0.09	-0.050			
0.5798	37108.23	3.6340	3.6340	-3.1527	24.80	-0.10	-0.050			
0.5830	37310.65	3.6330	3.6329	-3.1886	24.81	-0.09	-0.050			
0.5862	37518.02	3.6320	3.6320	-3.2148	24.82	-0.08	-0.050			
0.5895	37725.86	3.6310	3.6310	-3.2399	24.82	-0.08	-0.050			
0.5927	37935.85	3.6300	3.6300	-3.2646	24.80	-0.10	-0.050			
0.5960	38146.00	3.6290	3.6291	-3.2837	24.82	-0.08	-0.050			
0.5994	38359.33	3.6280	3.6281	-3.2984	24.85	-0.05	-0.050	0.583	0.604	
0.6027	38574.29	3.6270	3.6270	-3.3036	24.87	-0.03	-0.050			
0.6061	38788.45	3.6260	3.6261	-3.3097	24.90	0.00	-0.050			
0.6094	39001.35	3.6250	3.6249	-3.3039	24.91	0.01	-0.050			
0.6127	39213.89	3.6240	3.6240	-3.2929	24.90	0.00	-0.050			
0.6161	39427.38	3.6230	3.6230	-3.2773	24.90	0.00	-0.050			
0.6194	39638.71	3.6220	3.6222	-3.2680	24.88	-0.02	-0.050	0.444	0.528	
0.6226	39848.67	3.6210	3.6210	-3.2456	24.86	-0.04	-0.050			
0.6259	40055.70	3.6200	3.6199	-3.2198	24.86	-0.04	-0.050			
0.6291	40263.20	3.6190	3.6192	-3.1815	24.88	-0.02	-0.050			
0.6323	40468.49	3.6180	3.6180	-3.1523	24.88	-0.02	-0.050			
0.6355	40671.00	3.6170	3.6170	-3.1046	24.88	-0.02	-0.050			
0.6386	40868.56	3.6160	3.6160	-3.0571	24.90	-0.00	-0.050			
0.6417	41066.66	3.6150	3.6149	-3.0036	24.90	0.00	-0.050	0.516	0.580	
0.6447	41258.63	3.6140	3.6140	-2.9498	24.93	0.03	-0.050			
0.6476	41447.46	3.6130	3.6130	-2.8993	24.93	0.03	-0.050			
0.6505	41630.49	3.6120	3.6121	-2.8419	24.93	0.03	-0.050			
0.6533	41808.98	3.6110	3.6109	-2.7815	24.92	0.02	-0.050			
0.6560	41984.78	3.6100	3.6100	-2.7254	24.93	0.03	-0.050			
0.6587	42155.99	3.6090	3.6089	-2.6683	24.93	0.03	-0.050			
0.6613	42323.80	3.6080	3.6080	-2.6143	24.93	0.03	-0.050	0.535	0.607	
0.6639	42486.87	3.6070	3.6070	-2.5581	24.94	0.04	-0.050			
0.6664	42646.65	3.6060	3.6059	-2.5058	24.94	0.04	-0.050			
0.6688	42803.25	3.6050	3.6050	-2.4595	24.94	0.04	-0.050			
0.6712	42958.46	3.6040	3.6040	-2.4139	24.94	0.04	-0.050			
0.6736	43108.71	3.6030	3.6029	-2.3725	24.93	0.03	-0.050			
0.6759	43258.56	3.6020	3.6019	-2.3379	24.93	0.03	-0.050			
0.6782	43404.48	3.6010	3.6011	-2.3056	24.90	-0.00	-0.050			
0.6804	43548.65	3.6000	3.6000	-2.2714	24.86	-0.04	-0.050	0.446	0.615	
0.6827	43691.15	3.5990	3.5989	-2.2431	24.83	-0.07	-0.050			
0.6849	43832.31	3.5980	3.5979	-2.2182	24.80	-0.10	-0.050			
0.6871	43972.28	3.5970	3.5969	-2.1953	24.78	-0.12	-0.050			
0.6892	44111.10	3.5960	3.5960	-2.1724	24.78	-0.12	-0.050			
0.6913	44246.20	3.5950	3.5953	-2.1520	24.79	-0.11	-0.050			
0.6935	44382.43	3.5940	3.5939	-2.1311	24.82	-0.08	-0.050			
0.6956	44518.70	3.5930	3.5930	-2.1105	24.85	-0.05	-0.050			
0.6977	44653.65	3.5920	3.5919	-2.0921	24.87	-0.03	-0.050			
0.6998	44787.62	3.5910	3.5910	-2.0742	24.88	-0.02	-0.050	0.523	0.691	
0.7019	44921.02	3.5900	3.5901	-2.0538	24.91	0.01	-0.050			
0.7040	45053.74	3.5890	3.5891	-2.0287	24.94	0.04	-0.050			
0.7060	45184.12	3.5880	3.5880	-2.0067	24.96	0.06	-0.050			
0.7080	45312.55	3.5870	3.5871	-1.9833	24.98	0.08	-0.050			
0.7100	45439.56	3.5860	3.5860	-1.9565	25.01	0.11	-0.050			
0.7119	45564.57	3.5850	3.5854	-1.9324	25.01	0.11	-0.050			
0.7139	45688.26	3.5840	3.5840	-1.9075	25.01	0.11	-0.050			
0.7158	45808.18	3.5830	3.5831	-1.8850	25.01	0.11	-0.050			
0.7176	45927.45	3.5820	3.5821	-1.8593	25.02	0.12	-0.050			
0.7195	46045.54	3.5810	3.5811	-1.8354	25.01	0.11	-0.050			
0.7212	46159.94	3.5800	3.5799	-1.8107	25.02	0.12	-0.050	0.054	0.647	
0.7230	46273.52	3.5790	3.5791	-1.7900	25.02	0.12	-0.050			
0.7248	46386.99	3.5780	3.5779	-1.7703	25.03	0.13	-0.050			
0.7265	46497.86	3.5770	3.5769	-1.7532	25.04	0.14	-0.050			
0.7282	46607.18	3.5760	3.5760	-1.7388	25.04	0.14	-0.050			
0.7299	46714.75	3.5750	3.5750	-1.7270	25.05	0.15	-0.050			
0.7316	46825.28	3.5740	3.5741	-1.7223	25.06	0.16	-0.050			
0.7333	46933.35	3.5730	3.5732	-1.7134	25.06	0.16	-0.050			
0.7350	47040.99	3.5720	3.5720	-1.7087	25.07	0.17	-0.050			
0.7367	47148.32	3.5710	3.5710	-1.7126	25.06	0.16	-0.050			
0.7384	47258.45	3.5700	3.5700	-1.7107	25.03	0.13	-0.050			
0.7401	47366.11	3.5690	3.5694	-1.7074	25.02	0.12	-0.050			
0.7418	47474.76	3.5680	3.5679	-1.7095	25.02	0.12	-0.050			
0.7435	47582.47	3.5670	3.5670	-1.7155	25.01	0.11	-0.050			
0.7452	47692.08	3.5660	3.5660	-1.7189	24.98	0.08	-0.050			
0.7469	47802.48	3.5650	3.5653	-1.7212	24.96	0.06	-0.050			
0.7486	47912.90	3.5640	3.5640	-1.7252	24.95	0.05	-0.050			
0.7504	48023.26	3.5630	3.5628	-1.7288	24.94	0.04	-0.050			
0.7521	48137.26	3.5620	3.5620	-1.7324	24.94	0.04	-0.050			
0.7539	48249.71	3.5610	3.5614	-1.7288	24.94	0.04	-0.050			
0.7557	48362.67	3.5600	3.5599	-1.7234	24.94	0.04	-0.050			
0.7574	48474.84	3.5590	3.5591	-1.7181	24.95	0.05	-0.050			
0.7592	48587.00	3.5580	3.5580	-1.7098	24.96	0.06	-0.050			
0.7609	48699.12	3.5570	3.5572	-1.6920	24.98	0.08	-0.050	0.398	0.465	
0.7626	48808.88	3.5560	3.5559	-1.6755	24.97	0.07	-0.050			
0.7643	48918.09	3.5550	3.5550	-1.6540	24.98	0.08	-0.050			
0.7660	49026.09	3.5540	3.5540	-1.6304	24.98	0.08	-0.050			
0.7677	49131.89	3.5530	3.5534	-1.6047	24.98	0.08	-0.050			
0.7693	49234.78	3.5520	3.5519	-1.5744	24.98	0.08	-0.050			
0.7709	49336.06	3.5510	3.5510	-1.5436	24.98	0.08	-0.050			
0.7725	49436.91	3.5500	3.5501	-1.5135	24.97	0.07	-0.050			
0.7739	49531.31	3.5490	3.5489	-1.4761	24.96	0.06	-0.050			
0.7754	49624.09	3.5480	3.5479	-1.4430	24.94	0.04	-0.050			
0.7768	49714.53	3.5470	3.5470	-1.4065	24.95	0.05	-0.050			
0.7782	49804.85	3.5460	3.5460	-1.3754	24.94	0.04	-0.050			
0.7795	49890.99	3.5450	3.5449	-1.3395	24.96	0.06	-0.050			
0.7809	49974.73	3.5440	3.5440	-1.3050	24.96	0.06	-0.050	0.361	0.538	
0.7821	50055.94	3.5430	3.5428	-1.2724	24.97	0.07	-0.050			
0.7834	50136.58	3.5420	3.5419	-1.2447	24.97	0.07	-0.050			
0.7846	50213.01	3.5410	3.5410	-1.2149	24.97	0.07	-0.050			
0.7858	50288.52	3.5400	3.5400	-1.1853	24.97	0.07	-0.050			
0.7869	50362.63	3.5390	3.5392	-1.1589	24.97	0.07	-0.050			
0.7880	50435.13	3.5380	3.5380	-1.1356	24.98	0.08	-0.050			
0.7892	50505.89	3.5370	3.5369	-1.1161	24.97	0.07	-0.050			
0.7902	50575.23	3.5360	3.5360	-1.0938	24.96	0.06	-0.050			
0.7913	50643.23	3.5350	3.5351	-1.0782	24.97	0.07	-0.050			
0.7923	50709.76	3.5340	3.5339	-1.0657	24.97	0.07	-0.050			
0.7934	50774.53	3.5330	3.5330	-1.0492	24.97	0.07	-0.050			
0.7944	50840.12	3.5320	3.5319	-1.0404	24.96	0.06	-0.050			
0.7954	50904.02	3.5310	3.5313	-1.0337	24.95	0.05	-0.050			
0.7964	50968.23	3.5300	3.5301	-1.0267	24.96	0.06	-0.050			
0.7974	51032.17	3.5290	3.5289	-1.0200	24.96	0.06	-0.050			
0.7984	51095.32	3.5280	3.5279	-1.0204	24.96	0.06	-0.050			
0.7994	51160.80	3.5270	3.5270	-1.0185	24.96	0.06	-0.050			
0.8004	51226.50	3.5260	3.5260	-1.0171	24.94	0.04	-0.050			
0.8014	51291.78	3.5250	3.5250	-1.0156	24.94	0.04	-0.050			
0.8025	51356.83	3.5240	3.5243	-1.0142	24.94	0.04	-0.050			
0.8035	51421.80	3.5230	3.5230	-1.0132	24.93	0.03	-0.050			
0.8045	51487.40	3.5220	3.5220	-1.0114	24.92	0.02	-0.050			
0.8055	51552.28	3.5210	3.5211	-1.0113	24.90	0.00	-0.050			
0.8065	51618.43	3.5200	3.5197	-1.0125	24.90	0.00	-0.050			
0.8076	51683.83	3.5190	3.5190	-1.0070	24.89	-0.01	-0.050			
0.8086	51749.72	3.5180	3.5181	-1.0000	24.87	-0.03	-0.050			
0.8096	51814.48	3.5170	3.5170	-0.9917	24.87	-0.03	-0.050			
0.8106	51878.82	3.5160	3.5160	-0.9817	24.86	-0.04	-0.050			
0.8116	51942.02	3.5150	3.5147	-0.9720	24.86	-0.04	-0.050			
0.8126	52004.36	3.5140	3.5140	-0.9606	24.86	-0.04	-0.050			
0.8135	52066.28	3.5130	3.5130	-0.9514	24.86	-0.04	-0.050			
0.8145	52126.76	3.5120	3.5120	-0.9405	24.87	-0.03	-0.050			
0.8154	52186.66	3.5110	3.5110	-0.9271	24.88	-0.02	-0.050			
0.8163	52245.33	3.5100	3.5103	-0.9151	24.88	-0.02	-0.050			
0.8173	52304.00	3.5090	3.5090	-0.9047	24.90	0.00	-0.050			
0.8181	52360.50	3.5080	3.5080	-0.8921	24.90	0.00	-0.050			
0.8190	52416.27	3.5070	3.5069	-0.8849	24.91	0.01	-0.050			
0.8199	52472.41	3.5060	3.5060	-0.8789	24.93	0.03	-0.050			
0.8207	52525.56	3.5050	3.5050	-0.8772	24.93	0.03	-0.050	0.020	0.585	
0.8215	52577.37	3.5040	3.5040	-0.8777	24.94	0.04	-0.050			
0.8224	52631.45	3.5030	3.5030	-0.8808	24.96	0.06	-0.050			
0.8232	52683.64	3.5020	3.5023	-0.8869	24.97	0.07	-0.050			
0.8240	52736.00	3.5010	3.5010	-0.8973	24.97	0.07	-0.050			
0.8248	52788.74	3.5000	3.5001	-0.9222	24.98	0.08	-0.050			
0.8257	52843.11	3.4990	3.4991	-0.9543	25.00	0.10	-0.050			
0.8266	52900.51	3.4980	3.4979	-0.9795	25.01	0.11	-0.050			
0.8274	52955.84	3.4970	3.4971	-1.0293	25.02	0.12	-0.050			
0.8283	53013.15	3.4960	3.4960	-1.0778	25.02	0.12	-0.050			
0.8293	53074.44	3.4950	3.4952	-1.1481	25.03	0.13	-0.050			
0.8303	53140.90	3.4940	3.4944	-1.2309	25.04	0.14	-0.050			
0.8314	53212.15	3.4930	3.4932	-1.3079	25.04	0.14	-0.050			
0.8327	53292.73	3.4920	3.4920	-1.4064	25.04	0.14	-0.050			
0.8341	53380.88	3.4910	3.4910	-1.5126	25.03	0.13	-0.050			
0.8356	53475.63	3.4900	3.4900	-1.6152	25.02	0.12	-0.050			
0.8372	53582.62	3.4890	3.4893	-1.7302	25.01	0.11	-0.050			
0.8391	53699.71	3.4880	3.4877	-1.8422	25.00	0.10	-0.050			
0.8410	53824.05	3.4870	3.4868	-1.9513	25.01	0.11	-0.050			
0.8431	53960.98	3.4860	3.4859	-2.0483	25.00	0.10	-0.050			
0.8454	54102.72	3.4850	3.4848	-2.1452	25.00	0.10	-0.050			
0.8477	54252.15	3.4840	3.4839	-2.2369	25.00	0.10	-0.050			
0.8501	54405.03	3.4830	3.4831	-2.3117	25.01	0.11	-0.050			
0.8526	54566.69	3.4820	3.4820	-2.3768	25.01	0.11	-0.050			
0.8551	54729.50	3.4810	3.4810	-2.4311	25.01	0.11	-0.050			
0.8578	54899.63	3.4800	3.4802	-2.4677	24.98	0.08	-0.050			
0.8604	55067.68	3.4790	3.4791	-2.4924	24.96	0.06	-0.050	0.492	0.636	
0.8630	55233.42	3.4780	3.4781	-2.4901	24.94	0.04	-0.050			
0.8656	55399.98	3.4770	3.4770	-2.4843	24.93	0.03	-0.050			
0.8682	55563.75	3.4760	3.4760	-2.4653	24.90	-0.00	-0.050			
0.8707	55726.58	3.4750	3.4751	-2.4422	24.88	-0.02	-0.050			
0.8732	55886.89	3.4740	3.4740	-2.4035	24.88	-0.02	-0.050			
0.8757	56043.08	3.4730	3.4730	-2.3589	24.87	-0.03	-0.050			
0.8781	56195.53	3.4720	3.4720	-2.3070	24.88	-0.02	-0.050			
0.8804	56343.43	3.4710	3.4710	-2.2527	24.90	-0.00	-0.050	0.352	0.679	
0.8826	56488.81	3.4700	3.4700	-2.1985	24.90	0.00	-0.050			
0.8848	56629.20	3.4690	3.4690	-2.1362	24.90	0.00	-0.050			
0.8870	56766.40	3.4680	3.4680	-2.0738	24.92	0.02	-0.050			
0.8890	56899.05	3.4670	3.4670	-2.0076	24.92	0.02	-0.050			
0.8910	57026.59	3.4660	3.4660	-1.9389	24.93	0.03	-0.050			
0.8929	57148.66	3.4650	3.4654	-1.8692	24.92	0.02	-0.050			
0.8948	57267.19	3.4640	3.4642	-1.7997	24.90	0.00	-0.050			
0.8966	57379.52	3.4630	3.4630	-1.7279	24.88	-0.02	-0.050			
0.8982	57487.49	3.4620	3.4620	-1.6571	24.87	-0.03	-0.050			
0.8999	57593.28	3.4610	3.4613	-1.5894	24.87	-0.03	-0.050			
0.9014	57690.02	3.4600	3.4601	-1.5179	24.88	-0.02	-0.050	0.620	0.898	
0.9029	57783.51	3.4590	3.4590	-1.4476	24.88	-0.02	-0.050			
0.9043	57873.70	3.4580	3.4580	-1.3803	24.89	-0.01	-0.050			
0.9056	57958.02	3.4570	3.4569	-1.3144	24.90	0.00	-0.050			
0.9069	58039.24	3.4560	3.4560	-1.2509	24.92	0.02	-0.050			
0.9081	58117.01	3.4550	3.4549	-1.1906	24.93	0.03	-0.050			
0.9092	58190.05	3.4540	3.4541	-1.1289	24.94	0.04	-0.050			
0.9103	58259.50	3.4530	3.4529	-1.0714	24.94	0.04	-0.050			
0.9113	58323.52	3.4520	3.4520	-1.0133	24.94	0.04	-0.050			
0.9122	58383.83	3.4510	3.4509	-0.9582	24.96	0.06	-0.050			
0.9132	58443.39	3.4500	3.4502	-0.9058	24.96	0.06	-0.050			
0.9140	58497.63	3.4490	3.4489	-0.8608	24.96	0.06	-0.050			
0.9148	58548.95	3.4480	3.4478	-0.8127	24.96	0.06	-0.050			
0.9156	58597.79	3.4470	3.4470	-0.7694	24.96	0.06	-0.050			
0.9163	58642.92	3.4460	3.4460	-0.7278	24.96	0.06	-0.050			
0.9170	58687.09	3.4450	3.4449	-0.6861	24.96	0.06	-0.050			
0.9176	58728.06	3.4440	3.4439	-0.6533	24.96	0.06	-0.050			
0.9182	58765.90	3.4430	3.4430	-0.6215	24.96	0.06	-0.050			
0.9188	58803.09	3.4420	3.4420	-0.5873	24.95	0.05	-0.050			
0.9193	58837.68	3.4410	3.4411	-0.5611	24.94	0.04	-0.050			
0.9198	58869.49	3.4400	3.4400	-0.5347	24.94	0.04	-0.050			
0.9203	58901.74	3.4390	3.4393	-0.5088	24.94	0.04	-0.050			
0.9208	58932.89	3.4380	3.4378	-0.4911	24.94	0.04	-0.050	0.167	0.616	
0.9213	58961.84	3.4370	3.4370	-0.4667	24.93	0.03	-0.050			
0.9217	58989.29	3.4360	3.4359	-0.4497	24.93	0.03	-0.050			
0.9221	59016.76	3.4350	3.4348	-0.4316	24.93	0.03	-0.050			
0.9225	59042.39	3.4340	3.4341	-0.4174	24.92	0.02	-0.050			
0.9229	59068.00	3.4330	3.4331	-0.4023	24.91	0.01	-0.050			
0.9233	59091.67	3.4320	3.4321	-0.3908	24.91	0.01	-0.050			
0.9237	59115.45	3.4310	3.4310	-0.3780	24.90	0.00	-0.050			
0.9240	59138.65	3.4300	3.4298	-0.3704	24.89	-0.01	-0.050			
0.9244	59161.13	3.4290	3.4290	-0.3597	24.89	-0.01	-0.050			
0.9247	59182.52	3.4280	3.4281	-0.3516	24.88	-0.02	-0.050			
0.9251	59205.24	3.4270	3.4270	-0.3455	24.88	-0.02	-0.050			
0.9254	59225.96	3.4260	3.4259	-0.3379	24.88	-0.02	-0.050			
0.9257	59247.39	3.4250	3.4250	-0.3317	24.88	-0.02	-0.050			
0.9261	59267.56	3.4240	3.4239	-0.3251	24.87	-0.03	-0.050			
0.9264	59287.58	3.4230	3.4230	-0.3183	24.87	-0.03	-0.050			
0.9267	59307.80	3.4220	3.4218	-0.3136	24.87	-0.03	-0.050			
0.9270	59327.39	3.4210	3.4209	-0.3091	24.86	-0.04	-0.050			
0.9273	59347.02	3.4200	3.4202	-0.3047	24.86	-0.04	-0.050			
0.9276	59366.29	3.4190	3.4191	-0.3007	24.86	-0.04	-0.050			
0.9279	59385.16	3.4180	3.4179	-0.2960	24.86	-0.04	-0.050			
0.9282	59403.70	3.4170	3.4171	-0.2929	24.86	-0.04	-0.050			
0.9285	59422.43	3.4160	3.4160	-0.2895	24.86	-0.04	-0.050			
0.9288	59440.84	3.4150	3.4151	-0.2857	24.86	-0.04	-0.050			
0.9290	59458.56	3.4140	3.4140	-0.2823	24.86	-0.04	-0.050			
0.9293	59476.52	3.4130	3.4130	-0.2790	24.85	-0.05	-0.050			
0.9296	59493.89	3.4120	3.4119	-0.2766	24.85	-0.05	-0.050			
0.9299	59511.50	3.4110	3.4110	-0.2737	24.85	-0.05	-0.050			
0.9301	59528.42	3.4100	3.4100	-0.2701	24.85	-0.05	-0.050			
0.9304	59545.47	3.4090	3.4091	-0.2685	24.85	-0.05	-0.050			
0.9307	59562.34	3.4080	3.4080	-0.2659	24.85	-0.05	-0.050			
0.9309	59578.93	3.4070	3.4069	-0.2653	24.84	-0.06	-0.050			
0.9312	59595.58	3.4060	3.4060	-0.2633	24.84	-0.06	-0.050			
0.9314	59612.66	3.4050	3.4050	-0.2614	24.84	-0.06	-0.050			
0.9317	59629.23	3.4040	3.4040	-0.2597	24.84	-0.06	-0.050			
0.9320	59645.80	3.4030	3.4030	-0.2584	24.85	-0.05	-0.050			
0.9322	59662.65	3.4020	3.4019	-0.2559	24.85	-0.05	-0.050			
0.9325	59679.10	3.4010	3.4010	-0.2544	24.84	-0.06	-0.050			
0.9327	59695.33	3.4000	3.4000	-0.2526	24.83	-0.07	-0.050			
0.9330	59711.57	3.3990	3.3989	-0.2508	24.82	-0.08	-0.050			
0.9332	59727.56	3.3980	3.3980	-0.2489	24.82	-0.08	-0.050			
0.9335	59743.71	3.3970	3.3969	-0.2474	24.83	-0.07	-0.050			
0.9337	59759.16	3.3960	3.3960	-0.2463	24.83	-0.07	-0.050			
0.9340	59774.86	3.3950	3.3950	-0.2445	24.83	-0.07	-0.050			
0.9342	59790.26	3.3940	3.3946	-0.2430	24.82	-0.08	-0.050			
0.9345	59805.76	3.3930	3.3933	-0.2413	24.82	-0.08	-0.050			
0.9347	59821.24	3.3920	3.3918	-0.2398	24.82	-0.08	-0.050			
0.9349	59836.27	3.3910	3.3909	-0.2389	24.83	-0.07	-0.050			
0.9352	59851.51	3.3900	3.3899	-0.2375	24.83	-0.07	-0.050			
0.9354	59866.38	3.3890	3.3888	-0.2357	24.84	-0.06	-0.050			
0.9356	59881.28	3.3880	3.3880	-0.2351	24.84	-0.06	-0.050			
0.9359	59895.90	3.3870	3.3869	-0.2333	24.84	-0.06	-0.050			
0.9361	59910.76	3.3860	3.3859	-0.2328	24.85	-0.05	-0.050			
0.9363	59925.21	3.3850	3.3852	-0.2310	24.85	-0.05	-0.050			
0.9366	59939.99	3.3840	3.3840	-0.2309	24.85	-0.05	-0.050			
0.9368	59954.95	3.3830	3.3831	-0.2301	24.86	-0.04	-0.050			
0.9370	59969.97	3.3820	3.3820	-0.2305	24.86	-0.04	-0.050			
0.9373	59984.70	3.3810	3.3809	-0.2299	24.86	-0.04	-0.050			
0.9375	59999.49	3.3800	3.3801	-0.2289	24.86	-0.04	-0.050			
0.9377	60014.37	3.3790	3.3788	-0.2287	24.85	-0.05	-0.050			
0.9380	60028.98	3.3780	3.3780	-0.2278	24.85	-0.05	-0.050			
0.9382	60043.73	3.3770	3.3770	-0.2259	24.85	-0.05	-0.050			
0.9384	60058.23	3.3760	3.3759	-0.2249	24.86	-0.04	-0.050			
0.9386	60072.12	3.3750	3.3750	-0.2251	24.86	-0.04	-0.050			
0.9388	60086.32	3.3740	3.3741	-0.2239	24.86	-0.04	-0.050			
0.9391	60100.63	3.3730	3.3730	-0.2233	24.87	-0.03	-0.050			
0.9393	60115.31	3.3720	3.3721	-0.2213	24.87	-0.03	-0.050			
0.9395	60129.66	3.3710	3.3710	-0.2208	24.88	-0.02	-0.050			
0.9397	60143.75	3.3700	3.3699	-0.2195	24.88	-0.02	-0.050			
0.9400	60157.74	3.3690	3.3691	-0.2184	24.88	-0.02	-0.050			
0.9402	60171.69	3.3680	3.3680	-0.2172	24.88	-0.02	-0.050			
0.9404	60185.55	3.3670	3.3669	-0.2160	24.88	-0.02	-0.050			
0.9406	60199.24	3.3660	3.3659	-0.2151	24.88	-0.02	-0.050			
0.9408	60212.97	3.3650	3.3650	-0.2141	24.89	-0.01	-0.050	0.528	0.710	
0.9410	60226.64	3.3640	3.3641	-0.2130	24.89	-0.01	-0.050			
0.9412	60240.00	3.3630	3.3633	-0.2122	24.90	-0.00	-0.050			
0.9415	60253.55	3.3620	3.3623	-0.2114	24.90	0.00	-0.050			
0.9417	60267.06	3.3610	3.3610	-0.2106	24.90	0.00	-0.050			
0.9419	60280.51	3.3600	3.3600	-0.2096	24.90	0.00	-0.050			
0.9421	60293.90	3.3590	3.3588	-0.2088	24.90	0.00	-0.050			
0.9423	60307.24	3.3580	3.3580	-0.2080	24.91	0.01	-0.050			
0.9425	60320.52	3.3570	3.3570	-0.2070	24.91	0.01	-0.050			
0.9427	60333.75	3.3560	3.3558	-0.2062	24.92	0.02	-0.050			
0.9429	60346.97	3.3550	3.3550	-0.2054	24.93	0.03	-0.050			
0.9431	60360.12	3.3540	3.3541	-0.2045	24.93	0.03	-0.050			
0.9433	60373.17	3.3530	3.3528	-0.2035	24.93	0.03	-0.050			
0.9435	60385.65	3.3520	3.3520	-0.2017	24.94	0.04	-0.050			
0.9437	60398.64	3.3510	3.3511	-0.2010	24.94	0.04	-0.050			
0.9439	60411.49	3.3500	3.3501	-0.2004	24.94	0.04	-0.050			
0.9441	60424.96	3.3490	3.3489	-0.2009	24.94	0.04	-0.050			
0.9443	60437.78	3.3480	3.3481	-0.1998	24.95	0.05	-0.050			
0.9445	60450.40	3.3470	3.3470	-0.1993	24.95	0.05	-0.050			
0.9447	60462.98	3.3460	3.3459	-0.1981	24.95	0.05	-0.050			
0.9449	60475.63	3.3450	3.3451	-0.1972	24.95	0.05	-0.050			
0.9451	60488.22	3.3440	3.3440	-0.1965	24.96	0.06	-0.050			
0.9453	60500.66	3.3430	3.3428	-0.1955	24.96	0.06	-0.050			
0.9455	60513.15	3.3420	3.3421	-0.1947	24.96	0.06	-0.050			
0.9457	60525.27	3.3410	3.3411	-0.1952	24.97	0.07	-0.050			
0.9459	60537.48	3.3400	3.3398	-0.1942	24.97	0.07	-0.050			
0.9461	60549.90	3.3390	3.3391	-0.1940	24.98	0.08	-0.050			
0.9463	60562.89	3.3380	3.3380	-0.1920	24.98	0.08	-0.050			
0.9465	60575.32	3.3370	3.3369	-0.1917	24.98	0.08	-0.050			
0.9467	60587.56	3.3360	3.3361	-0.1908	24.98	0.08	-0.050			
0.9469	60599.74	3.3350	3.3349	-0.1900	24.98	0.08	-0.050			
0.9471	60612.02	3.3340	3.3339	-0.1895	24.98	0.08	-0.050			
0.9473	60624.11	3.3330	3.3330	-0.1885	24.98	0.08	-0.050			
0.9474	60636.15	3.3320	3.3319	-0.1875	24.99	0.09	-0.050			
0.9476	60648.18	3.3310	3.3309	-0.1872	24.99	0.09	-0.050			
0.9478	60660.13	3.3300	3.3299	-0.1862	25.00	0.10	-0.050			
0.9480	60672.01	3.3290	3.3290	-0.1851	25.00	0.10	-0.050			
0.9482	60683.83	3.3280	3.3283	-0.1841	25.00	0.10	-0.050			
0.9484	60695.30	3.3270	3.3274	-0.1840	25.00	0.10	-0.050			
0.9485	60707.05	3.3260	3.3257	-0.1833	25.01	0.11	-0.050			
0.9487	60718.75	3.3250	3.3249	-0.1825	25.01	0.11	-0.050			
0.9489	60730.20	3.3240	3.3239	-0.1817	25.01	0.11	-0.050			
0.9491	60741.81	3.3230	3.3230	-0.1811	25.01	0.11	-0.050			
0.9493	60753.38	3.3220	3.3220	-0.1806	25.02	0.12	-0.050			
0.9494	60764.68	3.3210	3.3210	-0.1797	25.02	0.12	-0.050			
0.9496	60776.33	3.3200	3.3199	-0.1790	25.02	0.12	-0.050			
0.9498	60787.77	3.3190	3.3188	-0.1785	25.02	0.12	-0.050			
0.9500	60798.76	3.3180	3.3180	-0.1771	25.02	0.12	-0.050			
0.9502	60810.09	3.3170	3.3171	-0.1770	25.02	0.12	-0.050			
0.9503	60821.60	3.3160	3.3161	-0.1761	25.02	0.12	-0.050			
0.9505	60832.87	3.3150	3.3152	-0.1758	25.02	0.12	-0.050			
0.9507	60844.86	3.3140	3.3140	-0.1766	25.02	0.12	-0.050			
0.9509	60855.94	3.3130	3.3130	-0.1761	25.02	0.12	-0.050			
0.9510	60867.18	3.3120	3.3119	-0.1754	25.02	0.12	-0.050			
0.9512	60878.27	3.3110	3.3111	-0.1744	25.02	0.12	-0.050			
0.9514	60889.41	3.3100	3.3101	-0.1737	25.02	0.12	-0.050			
0.9516	60900.51	3.3090	3.3090	-0.1731	25.02	0.12	-0.050			
0.9517	60911.57	3.3080	3.3080	-0.1724	25.02	0.12	-0.050			
0.9519	60922.58	3.3070	3.3071	-0.1717	25.02	0.12	-0.050			
0.9521	60933.55	3.3060	3.3058	-0.1711	25.02	0.12	-0.050			
0.9523	60944.44	3.3050	3.3049	-0.1706	25.02	0.12	-0.050			
0.9524	60955.15	3.3040	3.3040	-0.1695	25.02	0.12	-0.050			
0.9526	60965.99	3.3030	3.3030	-0.1691	25.03	0.13	-0.050			
0.9528	60976.70	3.3020	3.3019	-0.1688	25.03	0.13	-0.050			
0.9529	60987.50	3.3010	3.3011	-0.1685	25.03	0.13	-0.050			
0.9531	60998.26	3.3000	3.3001	-0.1681	25.03	0.13	-0.050			
0.9533	61009.01	3.2990	3.2990	-0.1677	25.04	0.14	-0.050			
0.9534	61019.87	3.2980	3.2980	-0.1669	25.04	0.14	-0.050			
0.9536	61030.54	3.2970	3.2970	-0.1664	25.05	0.15	-0.050			
0.9538	61041.28	3.2960	3.2959	-0.1661	25.05	0.15	-0.050			
0.9539	61051.88	3.2950	3.2950	-0.1655	25.05	0.15	-0.050			
0.9541	61062.68	3.2940	3.2939	-0.1642	25.05	0.15	-0.050			
0.9543	61073.28	3.2930	3.2930	-0.1637	25.04	0.14	-0.050			
0.9544	61083.73	3.2920	3.2920	-0.1628	25.04	0.14	-0.050			
0.9546	61094.12	3.2910	3.2909	-0.1619	25.04	0.14	-0.050			
0.9548	61104.32	3.2900	3.2898	-0.1615	25.04	0.14	-0.050			
0.9549	61114.62	3.2890	3.2890	-0.1608	25.05	0.15	-0.050			
0.9551	61124.88	3.2880	3.2882	-0.1600	25.05	0.15	-0.050			
0.9552	61135.10	3.2870	3.2872	-0.1593	25.05	0.15	-0.050			
0.9554	61145.15	3.2860	3.2860	-0.1589	25.06	0.16	-0.050			
0.9556	61155.36	3.2850	3.2850	-0.1584	25.06	0.16	-0.050			
0.9557	61165.47	3.2840	3.2841	-0.1577	25.06	0.16	-0.050			
0.9559	61175.54	3.2830	3.2831	-0.1570	25.06	0.16	-0.050			
0.9560	61185.56	3.2820	3.2820	-0.1559	25.06	0.16	-0.050			
0.9562	61195.52	3.2810	3.2810	-0.1553	25.06	0.16	-0.050			
0.9563	61205.43	3.2800	3.2800	-0.1546	25.06	0.16	-0.050			
0.9565	61215.31	3.2790	3.2787	-0.1539	25.06	0.16	-0.050			
0.9566	61224.88	3.2780	3.2779	-0.1529	25.06	0.16	-0.050			
0.9568	61234.68	3.2770	3.2770	-0.1524	25.06	0.16	-0.050			
0.9569	61244.42	3.2760	3.2760	-0.1519	25.06	0.16	-0.050			
0.9571	61254.13	3.2750	3.2750	-0.1515	25.06	0.16	-0.050			
0.9572	61263.92	3.2740	3.2742	-0.1511	25.06	0.16	-0.050			
0.9574	61273.38	3.2730	3.2732	-0.1510	25.06	0.16	-0.050			
0.9575	61283.04	3.2720	3.2721	-0.1506	25.06	0.16	-0.050			
0.9577	61292.66	3.2710	3.2709	-0.1502	25.06	0.16	-0.050			
0.9578	61302.40	3.2700	3.2699	-0.1500	25.06	0.16	-0.050			
0.9580	61311.89	3.2690	3.2690	-0.1497	25.06	0.16	-0.050			
0.9581	61321.46	3.2680	3.2679	-0.1493	25.06	0.16	-0.050			
0.9583	61331.00	3.2670	3.2669	-0.1489	25.05	0.15	-0.050			
0.9584	61340.20	3.2660	3.2660	-0.1480	25.05	0.15	-0.050			
0.9586	61349.56	3.2650	3.2651	-0.1480	25.04	0.14	-0.050			
0.9587	61359.03	3.2640	3.2641	-0.1480	25.04	0.14	-0.050			
0.9589	61368.50	3.2630	3.2629	-0.1479	25.04	0.14	-0.050			
0.9590	61377.79	3.2620	3.2618	-0.1475	25.04	0.14	-0.050			
0.9592	61387.23	3.2610	3.2610	-0.1475	25.04	0.14	-0.050			
0.9593	61397.16	3.2600	3.2600	-0.1462	25.04	0.14	-0.050			
0.9595	61406.50	3.2590	3.2591	-0.1458	25.04	0.14	-0.050			
0.9596	61415.82	3.2580	3.2580	-0.1454	25.04	0.14	-0.050			
0.9598	61425.55	3.2570	3.2570	-0.1455	25.04	0.14	-0.050			
0.9599	61434.81	3.2560	3.2560	-0.1449	25.04	0.14	-0.050			
0.9601	61444.06	3.2550	3.2549	-0.1442	25.04	0.14	-0.050			
0.9602	61453.27	3.2540	3.2539	-0.1436	25.04	0.14	-0.050			
0.9604	61462.64	3.2530	3.2529	-0.1432	25.04	0.14	-0.050			
0.9605	61471.78	3.2520	3.2519	-0.1424	25.04	0.14	-0.050			
0.9606	61480.82	3.2510	3.2509	-0.1417	25.04	0.14	-0.050			
0.9608	61489.87	3.2500	3.2499	-0.1409	25.04	0.14	-0.050	0.373	0.657	
0.9609	61498.87	3.2490	3.2489	-0.1402	25.04	0.14	-0.050			
0.9611	61507.81	3.2480	3.2479	-0.1394	25.04	0.14	-0.050			
0.9612	61516.72	3.2470	3.2469	-0.1385	25.04	0.14	-0.050			
0.9613	61525.56	3.2460	3.2459	-0.1377	25.04	0.14	-0.050			
0.9615	61534.38	3.2450	3.2448	-0.1370	25.04	0.14	-0.050			
0.9616	61543.12	3.2440	3.2438	-0.1362	25.05	0.15	-0.050			
0.9617	61551.81	3.2430	3.2429	-0.1354	25.05	0.15	-0.050			
0.9619	61560.09	3.2420	3.2420	-0.1357	25.05	0.15	-0.050			
0.9620	61568.76	3.2410	3.2411	-0.1352	25.06	0.16	-0.050			
0.9621	61576.93	3.2400	3.2403	-0.1338	25.06	0.16	-0.050			
0.9623	61585.49	3.2390	3.2395	-0.1336	25.06	0.16	-0.050			
0.9624	61594.03	3.2380	3.2380	-0.1335	25.06	0.16	-0.050			
0.9625	61602.65	3.2370	3.2367	-0.1330	25.06	0.16	-0.050			
0.9627	61611.32	3.2360	3.2360	-0.1332	25.06	0.16	-0.050			
0.9628	61619.83	3.2350	3.2349	-0.1328	25.06	0.16	-0.050			
0.9629	61628.32	3.2340	3.2338	-0.1325	25.06	0.16	-0.050			
0.9631	61636.79	3.2330	3.2329	-0.1321	25.06	0.16	-0.050			
0.9632	61645.23	3.2320	3.2320	-0.1317	25.06	0.16	-0.050			
0.9633	61653.42	3.2310	3.2309	-0.1309	25.06	0.16	-0.050			
0.9635	61661.80	3.2300	3.2300	-0.1307	25.06	0.16	-0.050			
0.9636	61670.15	3.2290	3.2291	-0.1305	25.06	0.16	-0.050			
0.9637	61678.49	3.2280	3.2281	-0.1302	25.06	0.16	-0.050			
0.9639	61686.91	3.2270	3.2271	-0.1301	25.06	0.16	-0.050			
0.9640	61695.23	3.2260	3.2260	-0.1298	25.06	0.16	-0.050			
0.9641	61703.53	3.2250	3.2250	-0.1295	25.06	0.16	-0.050			
0.9642	61711.82	3.2240	3.2241	-0.1292	25.07	0.17	-0.050			
0.9644	61720.24	3.2230	3.2230	-0.1284	25.07	0.17	-0.050			
0.9645	61728.67	3.2220	3.2219	-0.1286	25.07	0.17	-0.050			
0.9646	61736.88	3.2210	3.2209	-0.1281	25.07	0.17	-0.050			
0.9648	61745.06	3.2200	3.2200	-0.1275	25.07	0.17	-0.050			
0.9649	61753.20	3.2190	3.2191	-0.1269	25.07	0.17	-0.050			
0.9650	61761.30	3.2180	3.2181	-0.1263	25.07	0.17	-0.050			
0.9651	61769.06	3.2170	3.2170	-0.1259	25.07	0.17	-0.050			
0.9653	61777.11	3.2160	3.2158	-0.1256	25.07	0.17	-0.050			
0.9654	61785.13	3.2150	3.2150	-0.1253	25.07	0.17	-0.050			
0.9655	61793.14	3.2140	3.2141	-0.1249	25.07	0.17	-0.050			
0.9656	61801.13	3.2130	3.2131	-0.1246	25.07	0.17	-0.050			
0.9658	61809.17	3.2120	3.2120	-0.1243	25.08	0.18	-0.050			
0.9659	61817.12	3.2110	3.2110	-0.1239	25.08	0.18	-0.050			
0.9660	61825.03	3.2100	3.2100	-0.1235	25.08	0.18	-0.050			
0.9661	61832.93	3.2090	3.2089	-0.1231	25.09	0.19	-0.050			
0.9663	61840.79	3.2080	3.2077	-0.1227	25.09	0.19	-0.050			
0.9664	61848.61	3.2070	3.2070	-0.1223	25.09	0.19	-0.050			
0.9665	61856.43	3.2060	3.2060	-0.1219	25.09	0.19	-0.050			
0.9666	61864.22	3.2050	3.2051	-0.1216	25.09	0.19	-0.050			
0.9667	61871.99	3.2040	3.2041	-0.1212	25.09	0.19	-0.050			
0.9669	61879.65	3.2030	3.2031	-0.1207	25.09	0.19	-0.050			
0.9670	61887.40	3.2020	3.2020	-0.1203	25.09	0.19	-0.050			
0.9671	61895.09	3.2010	3.2010	-0.1200	25.09	0.19	-0.050			
0.9672	61902.76	3.2000	3.2000	-0.1197	25.09	0.19	-0.050			
0.9674	61910.41	3.1990	3.1990	-0.1194	25.09	0.19	-0.050			
0.9675	61918.04	3.1980	3.1980	-0.1190	25.09	0.19	-0.050			
0.9676	61925.85	3.1970	3.1970	-0.1189	25.09	0.19	-0.050			
0.9677	61933.48	3.1960	3.1960	-0.1183	25.09	0.19	-0.050			
0.9678	61941.03	3.1950	3.1950	-0.1178	25.09	0.19	-0.050			
0.9679	61948.56	3.1940	3.1941	-0.1173	25.09	0.19	-0.050			
0.9681	61956.05	3.1930	3.1929	-0.1168	25.09	0.19	-0.050			
0.9682	61963.42	3.1920	3.1919	-0.1162	25.09	0.19	-0.050			
0.9683	61970.84	3.1910	3.1910	-0.1158	25.09	0.19	-0.050			
0.9684	61978.27	3.1900	3.1901	-0.1152	25.09	0.19	-0.050			
0.9685	61985.63	3.1890	3.1891	-0.1148	25.09	0.19	-0.050			
0.9686	61992.96	3.1880	3.1880	-0.1143	25.09	0.19	-0.050			
0.9688	62000.38	3.1870	3.1868	-0.1140	25.09	0.19	-0.050			
0.9689	62007.66	3.1860	3.1860	-0.1135	25.09	0.19	-0.050			
0.9690	62014.78	3.1850	3.1851	-0.1132	25.09	0.19	-0.050			
0.9691	62022.01	3.1840	3.1842	-0.1128	25.09	0.19	-0.050			
0.9692	62029.21	3.1830	3.1832	-0.1123	25.09	0.19	-0.050			
0.9693	62036.32	3.1820	3.1820	-0.1118	25.09	0.19	-0.050			
0.9694	62043.47	3.1810	3.1809	-0.1114	25.09	0.19	-0.050			
0.9695	62050.50	3.1800	3.1799	-0.1112	25.09	0.19	-0.050			
0.9697	62057.60	3.1790	3.1790	-0.1108	25.09	0.19	-0.050			
0.9698	62064.69	3.1780	3.1778	-0.1105	25.09	0.19	-0.050			
0.9699	62071.75	3.1770	3.1769	-0.1101	25.09	0.19	-0.050			
0.9700	62078.64	3.1760	3.1761	-0.1096	25.09	0.19	-0.050			
0.9701	62085.65	3.1750	3.1751	-0.1093	25.09	0.19	-0.050			
0.9702	62092.68	3.1740	3.1740	-0.1090	25.09	0.19	-0.050			
0.9703	62099.65	3.1730	3.1730	-0.1087	25.09	0.19	-0.050			
0.9704	62106.60	3.1720	3.1720	-0.1084	25.09	0.19	-0.050			
0.9705	62113.53	3.1710	3.1711	-0.1081	25.09	0.19	-0.050			
0.9706	62120.46	3.1700	3.1699	-0.1079	25.09	0.19	-0.050			
0.9707	62127.36	3.1690	3.1689	-0.1076	25.09	0.19	-0.050			
0.9708	62134.24	3.1680	3.1680	-0.1073	25.09	0.19	-0.050			
0.9710	62141.13	3.1670	3.1671	-0.1069	25.09	0.19	-0.050			
0.9711	62147.96	3.1660	3.1661	-0.1066	25.09	0.19	-0.050			
0.9712	62154.86	3.1650	3.1650	-0.1064	25.09	0.19	-0.050			
0.9713	62161.66	3.1640	3.1640	-0.1060	25.09	0.19	-0.050			
0.9714	62168.43	3.1630	3.1630	-0.1056	25.09	0.19	-0.050			
0.9715	62175.21	3.1620	3.1619	-0.1052	25.09	0.19	-0.050			
0.9716	62181.93	3.1610	3.1611	-0.1048	25.09	0.19	-0.050			
0.9717	62188.64	3.1600	3.1602	-0.1044	25.09	0.19	-0.050			
0.9718	62195.31	3.1590	3.1590	-0.1040	25.10	0.20	-0.050			
0.9719	62201.95	3.1580	3.1579	-0.1036	25.10	0.20	-0.050			
0.9720	62208.57	3.1570	3.1569	-0.1032	25.10	0.20	-0.050			
0.9721	62215.10	3.1560	3.1560	-0.1030	25.10	0.20	-0.050			
0.9722	62221.68	3.1550	3.1550	-0.1026	25.10	0.20	-0.050			
0.9723	62228.22	3.1540	3.1540	-0.1022	25.10	0.20	-0.050			
0.9724	62234.75	3.1530	3.1531	-0.1019	25.10	0.20	-0.050			
0.9725	62241.26	3.1520	3.1522	-0.1015	25.10	0.20	-0.050			
0.9726	62247.75	3.1510	3.1510	-0.1012	25.10	0.20	-0.050			
0.9727	62254.21	3.1500	3.1499	-0.1008	25.10	0.20	-0.050			
0.9728	62260.58	3.1490	3.1490	-0.1007	25.10	0.20	-0.050			
0.9729	62267.02	3.1480	3.1480	-0.1004	25.10	0.20	-0.050			
0.9730	62273.35	3.1470	3.1471	-0.1000	25.10	0.20	-0.050			
0.9731	62279.74	3.1460	3.1460	-0.0997	25.10	0.20	-0.050			
0.9732	62286.11	3.1450	3.1449	-0.0995	25.10	0.20	-0.050			
0.9733	62292.47	3.1440	3.1439	-0.0992	25.10	0.20	-0.050			
0.9734	62298.81	3.1430	3.1429	-0.0990	25.10	0.20	-0.050			
0.9735	62305.13	3.1420	3.1420	-0.0986	25.10	0.20	-0.050			
0.9736	62311.43	3.1410	3.1410	-0.0983	25.10	0.20	-0.050			
0.9737	62317.72	3.1400	3.1400	-0.0981	25.10	0.20	-0.050			
0.9738	62323.99	3.1390	3.1391	-0.0979	25.10	0.20	-0.050			
0.9739	62330.24	3.1380	3.1380	-0.0976	25.10	0.20	-0.050			
0.9740	62336.48	3.1370	3.1370	-0.0974	25.10	0.20	-0.050			
0.9741	62342.84	3.1360	3.1359	-0.0971	25.10	0.20	-0.050			
0.9742	62349.04	3.1350	3.1349	-0.0968	25.10	0.20	-0.050			
0.9743	62355.22	3.1340	3.1340	-0.0964	25.10	0.20	-0.050			
0.9744	62361.39	3.1330	3.1330	-0.0961	25.10	0.20	-0.050			
0.9745	62367.53	3.1320	3.1320	-0.0958	25.10	0.20	-0.050			
0.9746	62373.65	3.1310	3.1311	-0.0955	25.10	0.20	-0.050			
0.9747	62379.59	3.1300	3.1301	-0.0957	25.10	0.20	-0.050			
0.9748	62385.64	3.1290	3.1290	-0.0953	25.10	0.20	-0.050			
0.9749	62391.74	3.1280	3.1280	-0.0951	25.10	0.20	-0.050			
0.9750	62397.82	3.1270	3.1270	-0.0949	25.10	0.20	-0.050			
0.9751	62403.89	3.1260	3.1260	-0.0947	25.10	0.20	-0.050			
0.9752	62409.94	3.1250	3.1251	-0.0946	25.10	0.20	-0.050			
0.9752	62415.99	3.1240	3.1240	-0.0944	25.10	0.20	-0.050			
0.9753	62422.22	3.1230	3.1228	-0.0933	25.10	0.20	-0.050			
0.9754	62428.25	3.1220	3.1220	-0.0931	25.10	0.20	-0.050			
0.9755	62434.20	3.1210	3.1210	-0.0927	25.10	0.20	-0.050			
0.9756	62440.12	3.1200	3.1199	-0.0923	25.10	0.20	-0.050			
0.9757	62446.02	3.1190	3.1189	-0.0920	25.10	0.20	-0.050			
0.9758	62451.89	3.1180	3.1179	-0.0916	25.10	0.20	-0.050			
0.9759	62457.70	3.1170	3.1171	-0.0913	25.10	0.20	-0.050			
0.9760	62463.63	3.1160	3.1162	-0.0912	25.10	0.20	-0.050			
0.9761	62469.46	3.1150	3.1152	-0.0908	25.10	0.20	-0.050			
0.9762	62475.25	3.1140	3.1141	-0.0904	25.10	0.20	-0.050			
0.9763	62481.02	3.1130	3.1133	-0.0899	25.10	0.20	-0.050			
0.9764	62486.77	3.1120	3.1121	-0.0895	25.10	0.20	-0.050			
0.9764	62492.48	3.1110	3.1109	-0.0891	25.10	0.20	-0.050			
0.9765	62498.07	3.1100	3.1099	-0.0891	25.10	0.20	-0.050			
0.9766	62503.76	3.1090	3.1089	-0.0887	25.10	0.20	-0.050			
0.9767	62509.43	3.1080	3.1079	-0.0884	25.10	0.20	-0.050			
0.9768	62515.07	3.1070	3.1069	-0.0880	25.10	0.20	-0.050			
0.9769	62520.70	3.1060	3.1059	-0.0877	25.10	0.20	-0.050			
0.9770	62526.30	3.1050	3.1049	-0.0874	25.10	0.20	-0.050			
0.9771	62531.88	3.1040	3.1041	-0.0870	25.10	0.20	-0.050			
0.9771	62536.92	3.1030	3.1032	-0.0862	25.10	0.20	-0.050			
0.9772	62542.57	3.1020	3.1021	-0.0860	25.10	0.20	-0.050			
0.9773	62548.07	3.1010	3.1010	-0.0859	25.10	0.20	-0.050			
0.9774	62553.56	3.1000	3.0999	-0.0857	25.10	0.20	-0.050			
0.9775	62559.05	3.0990	3.0989	-0.0856	25.10	0.20	-0.050			
0.9776	62564.52	3.0980	3.0980	-0.0855	25.10	0.20	-0.050			
0.9777	62570.22	3.0970	3.0970	-0.0857	25.10	0.20	-0.050			
0.9777	62575.70	3.0960	3.0959	-0.0855	25.10	0.20	-0.050			
0.9778	62581.16	3.0950	3.0950	-0.0852	25.10	0.20	-0.050			
0.9779	62586.62	3.0940	3.0941	-0.0849	25.10	0.20	-0.050			
0.9780	62592.05	3.0930	3.0931	-0.0846	25.10	0.20	-0.050			
0.9781	62597.45	3.0920	3.0920	-0.0843	25.10	0.20	-0.050			
0.9782	62602.84	3.0910	3.0909	-0.0841	25.10	0.20	-0.050			
0.9783	62608.18	3.0900	3.0899	-0.0837	25.10	0.20	-0.050			
0.9783	62613.53	3.0890	3.0889	-0.0835	25.10	0.20	-0.050			
0.9784	62618.87	3.0880	3.0880	-0.0832	25.10	0.20	-0.050			
0.9785	62624.19	3.0870	3.0870	-0.0830	25.10	0.20	-0.050			
0.9786	62629.42	3.0860	3.0860	-0.0829	25.10	0.20	-0.050			
0.9787	62634.72	3.0850	3.0850	-0.0827	25.10	0.20	-0.050			
0.9788	62640.00	3.0840	3.0840	-0.0825	25.10	0.20	-0.050			
0.9788	62645.28	3.0830	3.0832	-0.0823	25.10	0.20	-0.050			
0.9789	62650.52	3.0820	3.0820	-0.0820	25.10	0.20	-0.050			
0.9790	62655.76	3.0810	3.0809	-0.0818	25.10	0.20	-0.050			
0.9791	62661.04	3.0800	3.0799	-0.0815	25.10	0.20	-0.050			
0.9792	62666.25	3.0790	3.0790	-0.0813	25.10	0.20	-0.050			
0.9792	62671.45	3.0780	3.0780	-0.0811	25.09	0.19	-0.050			
0.9793	62676.63	3.0770	3.0770	-0.0808	25.09	0.19	-0.050			
0.9794	62681.79	3.0760	3.0760	-0.0806	25.09	0.19	-0.050			
0.9795	62686.94	3.0750	3.0749	-0.0803	25.09	0.19	-0.050			
0.9796	62692.04	3.0740	3.0739	-0.0801	25.09	0.19	-0.050			
0.9796	62697.21	3.0730	3.0732	-0.0798	25.09	0.19	-0.050			
0.9797	62702.31	3.0720	3.0721	-0.0795	25.09	0.19	-0.050			
0.9798	62707.39	3.0710	3.0710	-0.0793	25.09	0.19	-0.050			
0.9799	62712.45	3.0700	3.0700	-0.0790	25.09	0.19	-0.050			
0.9800	62717.50	3.0690	3.0690	-0.0787	25.09	0.19	-0.050			
0.9800	62722.50	3.0680	3.0680	-0.0786	25.09	0.19	-0.050			
0.9801	62727.52	3.0670	3.0670	-0.0784	25.09	0.19	-0.050			
0.9802	62732.56	3.0660	3.0660	-0.0782	25.09	0.19	-0.050			
0.9803	62737.56	3.0650	3.0650	-0.0780	25.09	0.19	-0.050			
0.9804	62742.54	3.0640	3.0639	-0.0777	25.09	0.19	-0.050			
0.9804	62747.50	3.0630	3.0631	-0.0775	25.09	0.19	-0.050			
0.9805	62752.45	3.0620	3.0621	-0.0772	25.09	0.19	-0.050			
0.9806	62757.38	3.0610	3.0610	-0.0769	25.09	0.19	-0.050			
0.9807	62762.18	3.0600	3.0599	-0.0766	25.09	0.19	-0.050			
0.9807	62767.12	3.0590	3.0589	-0.0763	25.09	0.19	-0.050	0.427	0.808	
0.9808	62772.00	3.0580	3.0581	-0.0761	25.09	0.19	-0.050			
0.9809	62776.86	3.0570	3.0571	-0.0759	25.09	0.19	-0.050			
0.9810	62781.71	3.0560	3.0560	-0.0757	25.09	0.19	-0.050			
0.9810	62786.55	3.0550	3.0550	-0.0755	25.09	0.19	-0.050			
0.9811	62791.37	3.0540	3.0540	-0.0753	25.09	0.19	-0.050			
0.9812	62796.21	3.0530	3.0530	-0.0751	25.09	0.19	-0.050			
0.9813	62801.00	3.0520	3.0520	-0.0749	25.09	0.19	-0.050			
0.9813	62805.79	3.0510	3.0511	-0.0747	25.09	0.19	-0.050			
0.9814	62810.56	3.0500	3.0500	-0.0745	25.09	0.19	-0.050			
0.9815	62815.32	3.0490	3.0490	-0.0742	25.09	0.19	-0.050			
0.9816	62820.10	3.0480	3.0480	-0.0741	25.09	0.19	-0.050			
0.9816	62824.83	3.0470	3.0470	-0.0739	25.09	0.19	-0.050			
0.9817	62829.55	3.0460	3.0460	-0.0736	25.09	0.19	-0.050			
0.9818	62834.26	3.0450	3.0450	-0.0734	25.09	0.19	-0.050			
0.9819	62838.95	3.0440	3.0440	-0.0732	25.09	0.19	-0.050			
0.9819	62843.52	3.0430	3.0430	-0.0732	25.09	0.19	-0.050			
0.9820	62848.20	3.0420	3.0420	-0.0730	25.09	0.19	-0.050			
0.9821	62852.87	3.0410	3.0410	-0.0729	25.09	0.19	-0.050			
0.9821	62857.53	3.0400	3.0400	-0.0727	25.09	0.19	-0.050			
0.9822	62862.04	3.0390	3.0390	-0.0723	25.09	0.19	-0.050			
0.9823	62866.67	3.0380	3.0379	-0.0722	25.09	0.19	-0.050			
0.9824	62871.29	3.0370	3.0369	-0.0721	25.09	0.19	-0.050			
0.9824	62876.15	3.0360	3.0359	-0.0716	25.09	0.19	-0.050			
0.9825	62880.72	3.0350	3.0349	-0.0713	25.09	0.19	-0.050			
0.9826	62885.28	3.0340	3.0339	-0.0711	25.09	0.19	-0.050			
0.9827	62889.82	3.0330	3.0329	-0.0709	25.09	0.19	-0.050			
0.9827	62894.34	3.0320	3.0320	-0.0706	25.09	0.19	-0.050			
0.9828	62899.01	3.0310	3.0310	-0.0706	25.09	0.19	-0.050			
0.9829	62903.52	3.0300	3.0301	-0.0703	25.09	0.19	-0.050			
0.9829	62908.01	3.0290	3.0292	-0.0700	25.09	0.19	-0.050			
0.9830	62912.48	3.0280	3.0282	-0.0697	25.09	0.19	-0.050			
0.9831	62916.84	3.0270	3.0272	-0.0695	25.09	0.19	-0.050			
0.9831	62921.28	3.0260	3.0261	-0.0693	25.09	0.19	-0.050			
0.9832	62925.71	3.0250	3.0251	-0.0690	25.08	0.18	-0.050			
0.9833	62930.12	3.0240	3.0240	-0.0687	25.08	0.18	-0.050			
0.9834	62934.56	3.0230	3.0228	-0.0686	25.08	0.18	-0.050			
0.9834	62938.94	3.0220	3.0219	-0.0683	25.08	0.18	-0.050			
0.9835	62943.30	3.0210	3.0209	-0.0680	25.08	0.18	-0.050			
0.9836	62947.64	3.0200	3.0199	-0.0677	25.08	0.18	-0.050			
0.9836	62951.87	3.0190	3.0189	-0.0676	25.07	0.17	-0.050			
0.9837	62956.19	3.0180	3.0179	-0.0674	25.07	0.17	-0.050			
0.9838	62960.49	3.0170	3.0169	-0.0671	25.07	0.17	-0.050			
0.9838	62964.53	3.0160	3.0161	-0.0665	25.07	0.17	-0.050			
0.9839	62968.79	3.0150	3.0150	-0.0664	25.07	0.17	-0.050			
0.9840	62973.03	3.0140	3.0140	-0.0663	25.07	0.17	-0.050			
0.9840	62977.28	3.0130	3.0130	-0.0662	25.07	0.17	-0.050			
0.9841	62981.51	3.0120	3.0120	-0.0661	25.07	0.17	-0.050			
0.9842	62985.74	3.0110	3.0111	-0.0660	25.07	0.17	-0.050			
0.9842	62989.96	3.0100	3.0101	-0.0659	25.06	0.16	-0.050			
0.9843	62994.18	3.0090	3.0090	-0.0658	25.06	0.16	-0.050			
0.9843	62998.39	3.0080	3.0080	-0.0657	25.06	0.16	-0.050			
0.9844	63002.67	3.0070	3.0070	-0.0653	25.06	0.16	-0.050			
0.9845	63006.84	3.0060	3.0060	-0.0651	25.06	0.16	-0.050			
0.9845	63011.00	3.0050	3.0050	-0.0649	25.06	0.16	-0.050			
0.9846	63015.15	3.0040	3.0040	-0.0647	25.06	0.16	-0.050			
