Ah_balance (normalized)	Ah_balance (mAh)	Voltage - fit (V)	Voltage -  interpolate (V)	dQ/dV (1/V)	Temperature (°C)	Temperature - diff (°C)	Current (C)	R_DC 0ms (mOhm)	R_DC 50ms (mOhm)	R_DC 50 ms PEC (mOhm)
0.0000	0.00	4.1880	4.1888	-0.3815	24.98	0.00	-0.050			
0.0004	25.19	4.1870	4.1867	-0.4295	24.98	0.00	-0.050			
0.0008	53.93	4.1860	4.1857	-0.4709	24.98	0.00	-0.050			
0.0013	85.57	4.1850	4.1847	-0.5044	24.98	0.00	-0.050			
0.0019	119.18	4.1840	4.1838	-0.5307	24.98	0.00	-0.050			
0.0024	154.71	4.1830	4.1829	-0.5545	24.98	-0.00	-0.050			
0.0030	191.62	4.1820	4.1819	-0.5748	24.97	-0.01	-0.050			
0.0036	229.89	4.1810	4.1809	-0.5926	24.98	-0.00	-0.050			
0.0042	269.65	4.1800	4.1800	-0.6078	24.98	-0.00	-0.050			
0.0048	309.75	4.1790	4.1791	-0.6211	24.97	-0.01	-0.050			
0.0055	350.25	4.1780	4.1779	-0.6337	24.98	0.00	-0.050			
0.0061	391.39	4.1770	4.1770	-0.6460	24.98	0.00	-0.050			
0.0068	433.76	4.1760	4.1761	-0.6560	24.98	0.00	-0.050			
0.0075	479.56	4.1750	4.1750	-0.6707	24.98	0.00	-0.050			
0.0082	523.48	4.1740	4.1741	-0.6785	24.98	0.00	-0.050			
0.0089	567.50	4.1730	4.1730	-0.6854	24.98	0.00	-0.050			
0.0096	611.79	4.1720	4.1720	-0.6920	24.98	0.00	-0.050			
0.0103	656.21	4.1710	4.1710	-0.6976	24.98	0.00	-0.050			
0.0110	701.40	4.1700	4.1700	-0.7026	24.98	0.00	-0.050			
0.0117	746.96	4.1690	4.1689	-0.7079	24.98	0.00	-0.050			
0.0124	792.29	4.1680	4.1679	-0.7142	24.98	0.00	-0.050			
0.0131	838.46	4.1670	4.1671	-0.7186	24.98	0.00	-0.050			
0.0138	884.89	4.1660	4.1659	-0.7231	24.98	0.00	-0.050			
0.0146	931.53	4.1650	4.1650	-0.7276	24.98	0.00	-0.050			
0.0153	978.43	4.1640	4.1639	-0.7314	24.98	0.00	-0.050			
0.0160	1025.62	4.1630	4.1630	-0.7345	24.97	-0.01	-0.050			
0.0168	1072.98	4.1620	4.1620	-0.7382	24.96	-0.02	-0.050			
0.0175	1120.51	4.1610	4.1610	-0.7412	24.96	-0.02	-0.050			
0.0183	1168.23	4.1600	4.1599	-0.7443	24.96	-0.02	-0.050			
0.0190	1215.84	4.1590	4.1591	-0.7479	24.96	-0.02	-0.050			
0.0197	1263.85	4.1580	4.1581	-0.7505	24.95	-0.03	-0.050	0.321	0.505	
0.0205	1311.82	4.1570	4.1571	-0.7530	24.94	-0.04	-0.050			
0.0213	1360.24	4.1560	4.1560	-0.7560	24.94	-0.04	-0.050			
0.0220	1409.13	4.1550	4.1550	-0.7593	24.94	-0.04	-0.050			
0.0228	1457.89	4.1540	4.1541	-0.7608	24.94	-0.04	-0.050			
0.0235	1506.57	4.1530	4.1530	-0.7629	24.93	-0.05	-0.050			
0.0243	1555.51	4.1520	4.1519	-0.7657	24.93	-0.05	-0.050			
0.0251	1604.55	4.1510	4.1509	-0.7678	24.94	-0.04	-0.050			
0.0258	1653.95	4.1500	4.1501	-0.7698	24.94	-0.04	-0.050			
0.0266	1703.41	4.1490	4.1489	-0.7720	24.93	-0.05	-0.050			
0.0274	1752.49	4.1480	4.1480	-0.7732	24.93	-0.05	-0.050			
0.0282	1802.22	4.1470	4.1470	-0.7754	24.93	-0.05	-0.050			
0.0289	1852.40	4.1460	4.1460	-0.7779	24.93	-0.05	-0.050			
0.0297	1902.13	4.1450	4.1450	-0.7797	24.91	-0.07	-0.050			
0.0305	1952.00	4.1440	4.1439	-0.7822	24.92	-0.06	-0.050			
0.0313	2002.24	4.1430	4.1431	-0.7835	24.92	-0.06	-0.050			
0.0321	2052.58	4.1420	4.1420	-0.7856	24.90	-0.08	-0.050			
0.0329	2102.76	4.1410	4.1410	-0.7868	24.90	-0.08	-0.050			
0.0336	2153.12	4.1400	4.1400	-0.7878	24.90	-0.08	-0.050			
0.0344	2204.12	4.1390	4.1390	-0.7889	24.91	-0.07	-0.050			
0.0352	2254.58	4.1380	4.1379	-0.7891	24.90	-0.08	-0.050			
0.0360	2305.45	4.1370	4.1369	-0.7905	24.90	-0.08	-0.050			
0.0368	2355.93	4.1360	4.1360	-0.7919	24.90	-0.08	-0.050			
0.0376	2406.59	4.1350	4.1351	-0.7939	24.90	-0.08	-0.050			
0.0384	2457.46	4.1340	4.1341	-0.7950	24.90	-0.08	-0.050			
0.0392	2508.43	4.1330	4.1330	-0.7963	24.90	-0.08	-0.050			
0.0400	2559.08	4.1320	4.1320	-0.7975	24.90	-0.08	-0.050			
0.0408	2610.09	4.1310	4.1311	-0.7992	24.90	-0.08	-0.050			
0.0416	2661.19	4.1300	4.1300	-0.8009	24.90	-0.08	-0.050			
0.0424	2712.56	4.1290	4.1289	-0.8023	24.89	-0.09	-0.050			
0.0432	2763.86	4.1280	4.1280	-0.8032	24.90	-0.08	-0.050			
0.0440	2815.38	4.1270	4.1270	-0.8042	24.90	-0.08	-0.050			
0.0448	2866.87	4.1260	4.1260	-0.8050	24.90	-0.08	-0.050			
0.0456	2918.49	4.1250	4.1250	-0.8062	24.90	-0.08	-0.050			
0.0464	2970.04	4.1240	4.1240	-0.8071	24.90	-0.08	-0.050			
0.0472	3021.95	4.1230	4.1230	-0.8089	24.90	-0.08	-0.050			
0.0480	3073.88	4.1220	4.1220	-0.8102	24.90	-0.08	-0.050			
0.0488	3125.71	4.1210	4.1211	-0.8115	24.90	-0.08	-0.050			
0.0497	3177.90	4.1200	4.1202	-0.8141	24.90	-0.08	-0.050			
0.0505	3230.00	4.1190	4.1189	-0.8154	24.90	-0.08	-0.050			
0.0513	3282.47	4.1180	4.1180	-0.8170	24.90	-0.08	-0.050			
0.0521	3334.54	4.1170	4.1169	-0.8174	24.90	-0.08	-0.050			
0.0529	3386.65	4.1160	4.1159	-0.8176	24.90	-0.08	-0.050			
0.0537	3438.82	4.1150	4.1150	-0.8191	24.90	-0.08	-0.050			
0.0546	3491.33	4.1140	4.1139	-0.8203	24.90	-0.08	-0.050			
0.0554	3544.10	4.1130	4.1130	-0.8213	24.90	-0.08	-0.050			
0.0562	3596.78	4.1120	4.1120	-0.8222	24.90	-0.08	-0.050			
0.0570	3649.05	4.1110	4.1110	-0.8239	24.92	-0.06	-0.050			
0.0578	3702.10	4.1100	4.1100	-0.8256	24.93	-0.05	-0.050			
0.0587	3755.20	4.1090	4.1090	-0.8267	24.93	-0.05	-0.050			
0.0595	3808.53	4.1080	4.1080	-0.8272	24.93	-0.05	-0.050			
0.0603	3861.35	4.1070	4.1070	-0.8289	24.94	-0.04	-0.050	0.361	0.498	
0.0612	3914.54	4.1060	4.1059	-0.8296	24.93	-0.05	-0.050			
0.0620	3967.55	4.1050	4.1051	-0.8302	24.94	-0.04	-0.050			
0.0628	4020.62	4.1040	4.1040	-0.8316	24.94	-0.04	-0.050			
0.0637	4073.63	4.1030	4.1029	-0.8326	24.94	-0.04	-0.050			
0.0645	4127.15	4.1020	4.1020	-0.8331	24.94	-0.04	-0.050			
0.0653	4180.48	4.1010	4.1010	-0.8335	24.94	-0.04	-0.050			
0.0662	4233.64	4.1000	4.0999	-0.8343	24.94	-0.04	-0.050			
0.0670	4287.37	4.0990	4.0990	-0.8351	24.94	-0.04	-0.050			
0.0678	4340.81	4.0980	4.0979	-0.8360	24.93	-0.05	-0.050			
0.0687	4394.48	4.0970	4.0970	-0.8367	24.93	-0.05	-0.050			
0.0695	4448.35	4.0960	4.0959	-0.8362	24.93	-0.05	-0.050			
0.0703	4502.04	4.0950	4.0949	-0.8359	24.92	-0.06	-0.050			
0.0712	4555.80	4.0940	4.0939	-0.8360	24.91	-0.07	-0.050			
0.0720	4609.48	4.0930	4.0931	-0.8359	24.90	-0.08	-0.050			
0.0729	4662.83	4.0920	4.0921	-0.8361	24.89	-0.09	-0.050			
0.0737	4715.87	4.0910	4.0909	-0.8359	24.88	-0.10	-0.050			
0.0745	4769.19	4.0900	4.0901	-0.8374	24.88	-0.10	-0.050			
0.0754	4822.83	4.0890	4.0890	-0.8389	24.88	-0.10	-0.050			
0.0762	4876.61	4.0880	4.0879	-0.8388	24.87	-0.11	-0.050			
0.0770	4929.67	4.0870	4.0871	-0.8389	24.86	-0.12	-0.050			
0.0779	4983.14	4.0860	4.0859	-0.8404	24.86	-0.12	-0.050			
0.0787	5036.91	4.0850	4.0851	-0.8412	24.87	-0.11	-0.050			
0.0795	5090.60	4.0840	4.0841	-0.8421	24.86	-0.12	-0.050			
0.0804	5144.49	4.0830	4.0831	-0.8434	24.87	-0.11	-0.050	0.317	0.515	
0.0812	5198.55	4.0820	4.0820	-0.8461	24.86	-0.12	-0.050			
0.0821	5252.80	4.0810	4.0811	-0.8478	24.86	-0.12	-0.050			
0.0829	5307.12	4.0800	4.0800	-0.8489	24.88	-0.10	-0.050			
0.0838	5362.07	4.0790	4.0791	-0.8493	24.88	-0.10	-0.050			
0.0846	5416.49	4.0780	4.0781	-0.8507	24.88	-0.10	-0.050			
0.0855	5470.93	4.0770	4.0771	-0.8525	24.88	-0.10	-0.050			
0.0863	5526.05	4.0760	4.0761	-0.8546	24.90	-0.08	-0.050			
0.0872	5580.73	4.0750	4.0750	-0.8540	24.90	-0.08	-0.050			
0.0881	5635.79	4.0740	4.0739	-0.8544	24.90	-0.08	-0.050			
0.0889	5690.33	4.0730	4.0730	-0.8547	24.92	-0.06	-0.050			
0.0898	5744.95	4.0720	4.0721	-0.8539	24.93	-0.05	-0.050			
0.0906	5799.45	4.0710	4.0709	-0.8542	24.93	-0.05	-0.050			
0.0915	5854.07	4.0700	4.0700	-0.8552	24.94	-0.04	-0.050			
0.0923	5909.07	4.0690	4.0689	-0.8555	24.94	-0.04	-0.050			
0.0932	5963.78	4.0680	4.0680	-0.8559	24.95	-0.03	-0.050			
0.0940	6018.53	4.0670	4.0671	-0.8556	24.96	-0.02	-0.050			
0.0949	6073.40	4.0660	4.0661	-0.8553	24.96	-0.02	-0.050			
0.0958	6128.34	4.0650	4.0649	-0.8554	24.96	-0.02	-0.050			
0.0966	6183.18	4.0640	4.0639	-0.8560	24.96	-0.02	-0.050			
0.0975	6237.36	4.0630	4.0630	-0.8570	24.96	-0.02	-0.050			
0.0983	6291.97	4.0620	4.0620	-0.8572	24.96	-0.02	-0.050			
0.0992	6347.07	4.0610	4.0609	-0.8576	24.96	-0.02	-0.050			
0.1000	6401.94	4.0600	4.0599	-0.8594	24.96	-0.02	-0.050			
0.1009	6457.20	4.0590	4.0590	-0.8596	24.96	-0.02	-0.050			
0.1017	6511.82	4.0580	4.0580	-0.8599	24.95	-0.03	-0.050			
0.1026	6566.79	4.0570	4.0570	-0.8600	24.95	-0.03	-0.050			
0.1035	6621.76	4.0560	4.0559	-0.8621	24.95	-0.03	-0.050			
0.1043	6677.27	4.0550	4.0550	-0.8630	24.94	-0.04	-0.050			
0.1052	6732.60	4.0540	4.0540	-0.8636	24.94	-0.04	-0.050			
0.1061	6787.83	4.0530	4.0530	-0.8638	24.94	-0.04	-0.050			
0.1069	6843.06	4.0520	4.0521	-0.8648	24.94	-0.04	-0.050			
0.1078	6898.42	4.0510	4.0509	-0.8655	24.93	-0.05	-0.050			
0.1087	6953.91	4.0500	4.0501	-0.8666	24.93	-0.05	-0.050			
0.1095	7009.54	4.0490	4.0489	-0.8686	24.93	-0.05	-0.050			
0.1104	7065.09	4.0480	4.0480	-0.8700	24.93	-0.05	-0.050			
0.1113	7120.89	4.0470	4.0470	-0.8701	24.93	-0.05	-0.050			
0.1121	7176.63	4.0460	4.0460	-0.8715	24.93	-0.05	-0.050			
0.1130	7231.97	4.0450	4.0450	-0.8726	24.93	-0.05	-0.050			
0.1139	7287.81	4.0440	4.0440	-0.8737	24.91	-0.07	-0.050			
0.1147	7343.58	4.0430	4.0430	-0.8733	24.91	-0.07	-0.050			
0.1156	7399.76	4.0420	4.0419	-0.8744	24.90	-0.08	-0.050			
0.1165	7455.87	4.0410	4.0410	-0.8760	24.90	-0.08	-0.050			
0.1174	7511.92	4.0400	4.0399	-0.8763	24.89	-0.09	-0.050			
0.1183	7568.32	4.0390	4.0390	-0.8781	24.90	-0.08	-0.050			
0.1191	7624.70	4.0380	4.0380	-0.8773	24.90	-0.08	-0.050			
0.1200	7680.88	4.0370	4.0370	-0.8784	24.90	-0.08	-0.050	0.317	0.471	
0.1209	7736.93	4.0360	4.0360	-0.8793	24.90	-0.08	-0.050			
0.1218	7793.62	4.0350	4.0350	-0.8805	24.90	-0.08	-0.050			
0.1227	7849.98	4.0340	4.0340	-0.8818	24.91	-0.07	-0.050			
0.1235	7906.47	4.0330	4.0329	-0.8815	24.90	-0.08	-0.050			
0.1244	7962.93	4.0320	4.0320	-0.8814	24.92	-0.06	-0.050			
0.1253	8019.07	4.0310	4.0311	-0.8824	24.92	-0.06	-0.050			
0.1262	8075.41	4.0300	4.0300	-0.8832	24.93	-0.05	-0.050			
0.1271	8131.52	4.0290	4.0291	-0.8852	24.93	-0.05	-0.050			
0.1279	8188.10	4.0280	4.0278	-0.8866	24.93	-0.05	-0.050			
0.1288	8244.66	4.0270	4.0271	-0.8886	24.93	-0.05	-0.050			
0.1297	8301.26	4.0260	4.0261	-0.8899	24.93	-0.05	-0.050			
0.1306	8358.28	4.0250	4.0251	-0.8913	24.93	-0.05	-0.050			
0.1315	8415.79	4.0240	4.0241	-0.8919	24.93	-0.05	-0.050			
0.1324	8473.14	4.0230	4.0229	-0.8951	24.93	-0.05	-0.050			
0.1333	8530.35	4.0220	4.0220	-0.8966	24.93	-0.05	-0.050			
0.1342	8587.94	4.0210	4.0211	-0.8976	24.93	-0.05	-0.050			
0.1351	8645.72	4.0200	4.0200	-0.8988	24.94	-0.04	-0.050			
0.1360	8703.51	4.0190	4.0190	-0.9001	24.94	-0.04	-0.050			
0.1369	8761.42	4.0180	4.0180	-0.9017	24.93	-0.05	-0.050			
0.1378	8818.92	4.0170	4.0171	-0.9019	24.93	-0.05	-0.050			
0.1387	8876.85	4.0160	4.0160	-0.9027	24.93	-0.05	-0.050			
0.1396	8934.85	4.0150	4.0150	-0.9040	24.94	-0.04	-0.050			
0.1405	8992.71	4.0140	4.0140	-0.9048	24.93	-0.05	-0.050	0.450	0.501	
0.1414	9050.78	4.0130	4.0131	-0.9059	24.93	-0.05	-0.050			
0.1423	9108.84	4.0120	4.0121	-0.9062	24.93	-0.05	-0.050			
0.1432	9166.75	4.0110	4.0110	-0.9045	24.93	-0.05	-0.050			
0.1441	9224.33	4.0100	4.0100	-0.9051	24.92	-0.06	-0.050			
0.1450	9282.10	4.0090	4.0090	-0.9054	24.92	-0.06	-0.050			
0.1459	9340.25	4.0080	4.0080	-0.9062	24.91	-0.07	-0.050			
0.1468	9398.05	4.0070	4.0070	-0.9071	24.90	-0.08	-0.050			
0.1478	9456.33	4.0060	4.0061	-0.9083	24.92	-0.06	-0.050			
0.1487	9514.31	4.0050	4.0049	-0.9096	24.90	-0.08	-0.050			
0.1496	9572.65	4.0040	4.0041	-0.9103	24.90	-0.08	-0.050			
0.1505	9630.97	4.0030	4.0030	-0.9109	24.90	-0.08	-0.050			
0.1514	9688.84	4.0020	4.0020	-0.9121	24.90	-0.08	-0.050			
0.1523	9747.26	4.0010	4.0009	-0.9144	24.90	-0.08	-0.050			
0.1532	9805.67	4.0000	4.0000	-0.9155	24.90	-0.08	-0.050			
0.1541	9864.51	3.9990	3.9991	-0.9161	24.90	-0.08	-0.050			
0.1550	9922.99	3.9980	3.9980	-0.9171	24.89	-0.09	-0.050			
0.1560	9981.89	3.9970	3.9971	-0.9177	24.89	-0.09	-0.050			
0.1569	10040.72	3.9960	3.9961	-0.9189	24.89	-0.09	-0.050			
0.1578	10099.63	3.9950	3.9951	-0.9199	24.88	-0.10	-0.050			
0.1587	10158.40	3.9940	3.9940	-0.9208	24.88	-0.10	-0.050			
0.1597	10217.71	3.9930	3.9931	-0.9225	24.88	-0.10	-0.050			
0.1606	10276.90	3.9920	3.9921	-0.9225	24.88	-0.10	-0.050			
0.1615	10336.34	3.9910	3.9910	-0.9238	24.88	-0.10	-0.050			
0.1624	10395.51	3.9900	3.9901	-0.9236	24.88	-0.10	-0.050			
0.1633	10454.30	3.9890	3.9890	-0.9249	24.89	-0.09	-0.050			
0.1643	10513.54	3.9880	3.9880	-0.9265	24.89	-0.09	-0.050			
0.1652	10572.58	3.9870	3.9870	-0.9267	24.89	-0.09	-0.050			
0.1661	10631.88	3.9860	3.9861	-0.9280	24.90	-0.08	-0.050			
0.1671	10691.34	3.9850	3.9850	-0.9281	24.88	-0.10	-0.050			
0.1680	10750.79	3.9840	3.9840	-0.9295	24.90	-0.08	-0.050			
0.1689	10810.07	3.9830	3.9830	-0.9304	24.89	-0.09	-0.050			
0.1698	10869.55	3.9820	3.9819	-0.9311	24.90	-0.08	-0.050			
0.1708	10929.26	3.9810	3.9810	-0.9319	24.90	-0.08	-0.050			
0.1717	10989.01	3.9800	3.9799	-0.9329	24.89	-0.09	-0.050			
0.1726	11048.95	3.9790	3.9791	-0.9347	24.90	-0.08	-0.050			
0.1736	11108.75	3.9780	3.9780	-0.9357	24.89	-0.09	-0.050			
0.1745	11168.62	3.9770	3.9770	-0.9371	24.89	-0.09	-0.050			
0.1754	11228.61	3.9760	3.9759	-0.9383	24.88	-0.10	-0.050			
0.1764	11288.78	3.9750	3.9750	-0.9396	24.88	-0.10	-0.050			
0.1773	11348.95	3.9740	3.9739	-0.9408	24.88	-0.10	-0.050			
0.1783	11409.22	3.9730	3.9730	-0.9416	24.87	-0.11	-0.050			
0.1792	11469.78	3.9720	3.9719	-0.9430	24.86	-0.12	-0.050			
0.1802	11530.28	3.9710	3.9710	-0.9433	24.86	-0.12	-0.050	0.411	0.465	
0.1811	11590.55	3.9700	3.9701	-0.9435	24.85	-0.13	-0.050			
0.1820	11650.74	3.9690	3.9690	-0.9446	24.85	-0.13	-0.050			
0.1830	11711.08	3.9680	3.9680	-0.9457	24.85	-0.13	-0.050			
0.1839	11771.63	3.9670	3.9670	-0.9476	24.83	-0.15	-0.050			
0.1849	11832.26	3.9660	3.9660	-0.9488	24.82	-0.16	-0.050			
0.1858	11893.12	3.9650	3.9650	-0.9504	24.82	-0.16	-0.050			
0.1868	11953.97	3.9640	3.9639	-0.9506	24.82	-0.16	-0.050			
0.1877	12014.99	3.9630	3.9630	-0.9515	24.80	-0.18	-0.050			
0.1887	12076.10	3.9620	3.9620	-0.9523	24.80	-0.18	-0.050			
0.1896	12137.03	3.9610	3.9610	-0.9528	24.80	-0.18	-0.050			
0.1906	12197.85	3.9600	3.9599	-0.9538	24.80	-0.18	-0.050			
0.1915	12259.14	3.9590	3.9589	-0.9553	24.80	-0.18	-0.050			
0.1925	12319.73	3.9580	3.9580	-0.9567	24.80	-0.18	-0.050			
0.1935	12381.20	3.9570	3.9571	-0.9578	24.80	-0.18	-0.050			
0.1944	12442.65	3.9560	3.9559	-0.9586	24.81	-0.17	-0.050			
0.1954	12504.20	3.9550	3.9549	-0.9594	24.82	-0.16	-0.050			
0.1963	12565.78	3.9540	3.9539	-0.9601	24.82	-0.16	-0.050			
0.1973	12627.42	3.9530	3.9530	-0.9611	24.82	-0.16	-0.050			
0.1983	12689.26	3.9520	3.9520	-0.9610	24.82	-0.16	-0.050			
0.1992	12750.67	3.9510	3.9509	-0.9620	24.84	-0.14	-0.050			
0.2002	12812.13	3.9500	3.9501	-0.9623	24.85	-0.13	-0.050	0.306	0.488	
0.2011	12873.50	3.9490	3.9490	-0.9626	24.85	-0.13	-0.050			
0.2021	12935.07	3.9480	3.9482	-0.9624	24.86	-0.12	-0.050			
0.2031	12996.52	3.9470	3.9470	-0.9644	24.86	-0.12	-0.050			
0.2040	13058.48	3.9460	3.9460	-0.9654	24.86	-0.12	-0.050			
0.2050	13120.26	3.9450	3.9450	-0.9668	24.87	-0.11	-0.050			
0.2060	13182.12	3.9440	3.9440	-0.9674	24.88	-0.10	-0.050			
0.2069	13243.77	3.9430	3.9429	-0.9695	24.88	-0.10	-0.050			
0.2079	13305.86	3.9420	3.9420	-0.9704	24.88	-0.10	-0.050			
0.2089	13367.86	3.9410	3.9410	-0.9707	24.88	-0.10	-0.050			
0.2098	13429.92	3.9400	3.9399	-0.9711	24.88	-0.10	-0.050			
0.2108	13492.19	3.9390	3.9391	-0.9714	24.88	-0.10	-0.050			
0.2118	13554.32	3.9380	3.9379	-0.9728	24.90	-0.08	-0.050			
0.2128	13616.80	3.9370	3.9370	-0.9747	24.90	-0.08	-0.050			
0.2137	13679.45	3.9360	3.9360	-0.9765	24.90	-0.08	-0.050			
0.2147	13742.33	3.9350	3.9350	-0.9781	24.92	-0.06	-0.050			
0.2157	13805.00	3.9340	3.9340	-0.9782	24.93	-0.05	-0.050			
0.2167	13867.71	3.9330	3.9330	-0.9789	24.93	-0.05	-0.050			
0.2177	13930.43	3.9320	3.9320	-0.9800	24.94	-0.04	-0.050			
0.2186	13992.97	3.9310	3.9309	-0.9809	24.95	-0.03	-0.050			
0.2196	14055.80	3.9300	3.9300	-0.9813	24.95	-0.03	-0.050			
0.2206	14118.52	3.9290	3.9291	-0.9821	24.96	-0.02	-0.050	0.488	0.543	
0.2216	14181.76	3.9280	3.9280	-0.9832	24.96	-0.02	-0.050			
0.2226	14244.37	3.9270	3.9270	-0.9824	24.96	-0.02	-0.050			
0.2236	14307.30	3.9260	3.9260	-0.9828	24.97	-0.01	-0.050			
0.2245	14370.36	3.9250	3.9251	-0.9834	24.96	-0.02	-0.050			
0.2255	14433.49	3.9240	3.9241	-0.9834	24.97	-0.01	-0.050			
0.2265	14496.38	3.9230	3.9230	-0.9834	24.97	-0.01	-0.050			
0.2275	14559.39	3.9220	3.9220	-0.9841	24.97	-0.01	-0.050			
0.2285	14622.86	3.9210	3.9211	-0.9845	24.98	0.00	-0.050			
0.2295	14685.70	3.9200	3.9200	-0.9848	24.98	0.00	-0.050			
0.2304	14748.72	3.9190	3.9190	-0.9849	24.98	0.00	-0.050			
0.2314	14811.56	3.9180	3.9180	-0.9840	24.98	-0.00	-0.050			
0.2324	14874.77	3.9170	3.9171	-0.9831	24.96	-0.02	-0.050			
0.2334	14937.56	3.9160	3.9160	-0.9837	24.96	-0.02	-0.050			
0.2344	15000.74	3.9150	3.9151	-0.9839	24.95	-0.03	-0.050			
0.2354	15063.37	3.9140	3.9140	-0.9842	24.94	-0.04	-0.050			
0.2363	15126.10	3.9130	3.9131	-0.9842	24.94	-0.04	-0.050			
0.2373	15188.92	3.9120	3.9120	-0.9856	24.93	-0.05	-0.050			
0.2383	15251.98	3.9110	3.9110	-0.9849	24.93	-0.05	-0.050			
0.2393	15314.88	3.9100	3.9100	-0.9869	24.93	-0.05	-0.050			
0.2403	15377.97	3.9090	3.9091	-0.9874	24.91	-0.07	-0.050	0.388	0.458	
0.2413	15441.45	3.9080	3.9079	-0.9885	24.90	-0.08	-0.050			
0.2423	15504.74	3.9070	3.9069	-0.9888	24.90	-0.08	-0.050			
0.2432	15567.92	3.9060	3.9061	-0.9897	24.89	-0.09	-0.050			
0.2442	15631.13	3.9050	3.9050	-0.9912	24.88	-0.10	-0.050			
0.2452	15694.69	3.9040	3.9040	-0.9924	24.88	-0.10	-0.050			
0.2462	15758.21	3.9030	3.9030	-0.9927	24.90	-0.08	-0.050			
0.2472	15822.00	3.9020	3.9020	-0.9930	24.89	-0.09	-0.050			
0.2482	15885.88	3.9010	3.9009	-0.9934	24.89	-0.09	-0.050			
0.2492	15949.58	3.9000	3.8999	-0.9937	24.90	-0.08	-0.050			
0.2502	16013.52	3.8990	3.8990	-0.9944	24.90	-0.08	-0.050			
0.2512	16077.49	3.8980	3.8980	-0.9939	24.90	-0.08	-0.050			
0.2522	16141.19	3.8970	3.8969	-0.9942	24.90	-0.08	-0.050			
0.2532	16204.87	3.8960	3.8960	-0.9931	24.89	-0.09	-0.050			
0.2542	16268.36	3.8950	3.8951	-0.9927	24.90	-0.08	-0.050			
0.2552	16331.47	3.8940	3.8940	-0.9923	24.90	-0.08	-0.050			
0.2562	16394.72	3.8930	3.8930	-0.9926	24.90	-0.08	-0.050			
0.2572	16457.92	3.8920	3.8920	-0.9938	24.90	-0.08	-0.050			
0.2581	16521.41	3.8910	3.8909	-0.9951	24.90	-0.08	-0.050			
0.2591	16584.65	3.8900	3.8901	-0.9955	24.89	-0.09	-0.050			
0.2601	16648.20	3.8890	3.8891	-0.9972	24.89	-0.09	-0.050	0.453	0.538	
0.2611	16712.00	3.8880	3.8880	-0.9987	24.88	-0.10	-0.050			
0.2621	16775.85	3.8870	3.8870	-0.9991	24.88	-0.10	-0.050			
0.2631	16839.90	3.8860	3.8858	-0.9994	24.88	-0.10	-0.050			
0.2641	16904.03	3.8850	3.8850	-1.0000	24.88	-0.10	-0.050			
0.2651	16968.31	3.8840	3.8840	-1.0019	24.87	-0.11	-0.050			
0.2661	17032.65	3.8830	3.8829	-1.0036	24.88	-0.10	-0.050			
0.2671	17097.17	3.8820	3.8821	-1.0051	24.87	-0.11	-0.050			
0.2682	17161.66	3.8810	3.8811	-1.0054	24.87	-0.11	-0.050			
0.2692	17226.36	3.8800	3.8800	-1.0058	24.86	-0.12	-0.050			
0.2702	17291.00	3.8790	3.8791	-1.0071	24.86	-0.12	-0.050			
0.2712	17355.55	3.8780	3.8780	-1.0077	24.86	-0.12	-0.050			
0.2722	17419.72	3.8770	3.8770	-1.0088	24.86	-0.12	-0.050			
0.2732	17484.50	3.8760	3.8759	-1.0082	24.85	-0.13	-0.050			
0.2742	17549.00	3.8750	3.8750	-1.0080	24.85	-0.13	-0.050			
0.2752	17613.55	3.8740	3.8740	-1.0077	24.85	-0.13	-0.050			
0.2762	17677.86	3.8730	3.8729	-1.0073	24.85	-0.13	-0.050			
0.2772	17742.20	3.8720	3.8720	-1.0068	24.84	-0.14	-0.050			
0.2782	17806.65	3.8710	3.8709	-1.0076	24.84	-0.14	-0.050			
0.2792	17871.03	3.8700	3.8699	-1.0083	24.84	-0.14	-0.050			
0.2802	17935.85	3.8690	3.8691	-1.0082	24.82	-0.16	-0.050	0.373	0.486	
0.2813	18000.37	3.8680	3.8679	-1.0092	24.84	-0.14	-0.050			
0.2823	18065.25	3.8670	3.8671	-1.0097	24.84	-0.14	-0.050			
0.2833	18129.90	3.8660	3.8659	-1.0089	24.83	-0.15	-0.050			
0.2843	18194.59	3.8650	3.8650	-1.0084	24.84	-0.14	-0.050			
0.2853	18258.80	3.8640	3.8640	-1.0101	24.85	-0.13	-0.050			
0.2863	18323.30	3.8630	3.8630	-1.0093	24.85	-0.13	-0.050			
0.2873	18388.25	3.8620	3.8621	-1.0093	24.84	-0.14	-0.050			
0.2883	18452.53	3.8610	3.8611	-1.0104	24.85	-0.13	-0.050			
0.2893	18517.11	3.8600	3.8600	-1.0106	24.85	-0.13	-0.050			
0.2903	18581.56	3.8590	3.8589	-1.0106	24.85	-0.13	-0.050			
0.2913	18646.34	3.8580	3.8581	-1.0114	24.85	-0.13	-0.050			
0.2924	18710.84	3.8570	3.8570	-1.0123	24.85	-0.13	-0.050			
0.2934	18775.97	3.8560	3.8560	-1.0133	24.85	-0.13	-0.050			
0.2944	18840.96	3.8550	3.8548	-1.0137	24.85	-0.13	-0.050			
0.2954	18906.21	3.8540	3.8541	-1.0134	24.85	-0.13	-0.050			
0.2964	18970.89	3.8530	3.8530	-1.0141	24.85	-0.13	-0.050			
0.2974	19035.62	3.8520	3.8519	-1.0146	24.84	-0.14	-0.050			
0.2984	19100.35	3.8510	3.8511	-1.0155	24.83	-0.15	-0.050			
0.2995	19165.81	3.8500	3.8500	-1.0162	24.82	-0.16	-0.050			
0.3005	19230.80	3.8490	3.8490	-1.0174	24.82	-0.16	-0.050	0.377	0.456	
0.3015	19295.72	3.8480	3.8481	-1.0178	24.82	-0.16	-0.050			
0.3025	19361.09	3.8470	3.8471	-1.0185	24.82	-0.16	-0.050			
0.3035	19426.42	3.8460	3.8460	-1.0186	24.82	-0.16	-0.050			
0.3046	19491.85	3.8450	3.8450	-1.0188	24.81	-0.17	-0.050			
0.3056	19556.46	3.8440	3.8440	-1.0182	24.82	-0.16	-0.050			
0.3066	19622.05	3.8430	3.8430	-1.0188	24.82	-0.16	-0.050			
0.3076	19687.62	3.8420	3.8420	-1.0181	24.82	-0.16	-0.050			
0.3086	19752.89	3.8410	3.8410	-1.0155	24.84	-0.14	-0.050			
0.3097	19818.23	3.8400	3.8400	-1.0146	24.85	-0.13	-0.050			
0.3107	19883.10	3.8390	3.8391	-1.0148	24.85	-0.13	-0.050			
0.3117	19948.10	3.8380	3.8381	-1.0145	24.86	-0.12	-0.050			
0.3127	20013.16	3.8370	3.8369	-1.0140	24.86	-0.12	-0.050			
0.3137	20078.18	3.8360	3.8360	-1.0131	24.88	-0.10	-0.050			
0.3147	20142.73	3.8350	3.8349	-1.0130	24.88	-0.10	-0.050			
0.3157	20207.06	3.8340	3.8341	-1.0132	24.88	-0.10	-0.050			
0.3167	20271.25	3.8330	3.8330	-1.0121	24.90	-0.08	-0.050			
0.3177	20335.96	3.8320	3.8320	-1.0119	24.90	-0.08	-0.050			
0.3188	20400.78	3.8310	3.8310	-1.0113	24.90	-0.08	-0.050			
0.3198	20465.39	3.8300	3.8299	-1.0119	24.90	-0.08	-0.050	0.410	0.461	
0.3208	20530.30	3.8290	3.8291	-1.0116	24.90	-0.08	-0.050			
0.3218	20594.80	3.8280	3.8280	-1.0117	24.91	-0.07	-0.050			
0.3228	20659.90	3.8270	3.8270	-1.0115	24.90	-0.08	-0.050			
0.3238	20724.81	3.8260	3.8260	-1.0112	24.90	-0.08	-0.050			
0.3248	20789.71	3.8250	3.8250	-1.0110	24.90	-0.08	-0.050			
0.3259	20854.51	3.8240	3.8240	-1.0103	24.91	-0.07	-0.050			
0.3269	20919.76	3.8230	3.8230	-1.0107	24.92	-0.06	-0.050			
0.3279	20984.40	3.8220	3.8220	-1.0098	24.93	-0.05	-0.050			
0.3289	21049.23	3.8210	3.8209	-1.0104	24.93	-0.05	-0.050			
0.3299	21113.62	3.8200	3.8200	-1.0086	24.94	-0.04	-0.050			
0.3309	21177.88	3.8190	3.8190	-1.0066	24.94	-0.04	-0.050			
0.3319	21242.77	3.8180	3.8180	-1.0055	24.94	-0.04	-0.050			
0.3329	21307.27	3.8170	3.8171	-1.0036	24.94	-0.04	-0.050			
0.3339	21371.38	3.8160	3.8159	-1.0018	24.94	-0.04	-0.050			
0.3349	21435.19	3.8150	3.8150	-0.9993	24.94	-0.04	-0.050			
0.3359	21498.96	3.8140	3.8140	-0.9980	24.95	-0.03	-0.050			
0.3369	21562.85	3.8130	3.8129	-0.9964	24.94	-0.04	-0.050			
0.3379	21627.15	3.8120	3.8120	-0.9951	24.94	-0.04	-0.050			
0.3389	21691.10	3.8110	3.8111	-0.9929	24.95	-0.03	-0.050			
0.3399	21754.28	3.8100	3.8100	-0.9906	24.95	-0.03	-0.050			
0.3409	21818.00	3.8090	3.8090	-0.9886	24.94	-0.04	-0.050			
0.3419	21881.24	3.8080	3.8079	-0.9856	24.94	-0.04	-0.050			
0.3429	21944.49	3.8070	3.8070	-0.9833	24.94	-0.04	-0.050			
0.3439	22007.04	3.8060	3.8060	-0.9819	24.94	-0.04	-0.050			
0.3448	22069.68	3.8050	3.8050	-0.9789	24.94	-0.04	-0.050			
0.3458	22132.20	3.8040	3.8040	-0.9765	24.94	-0.04	-0.050			
0.3468	22194.46	3.8030	3.8030	-0.9740	24.94	-0.04	-0.050			
0.3478	22256.75	3.8020	3.8020	-0.9709	24.94	-0.04	-0.050			
0.3487	22318.90	3.8010	3.8010	-0.9679	24.94	-0.04	-0.050			
0.3497	22381.38	3.8000	3.8000	-0.9642	24.93	-0.05	-0.050			
0.3507	22443.43	3.7990	3.7989	-0.9611	24.94	-0.04	-0.050			
0.3516	22505.26	3.7980	3.7979	-0.9566	24.93	-0.05	-0.050			
0.3526	22566.57	3.7970	3.7970	-0.9523	24.93	-0.05	-0.050			
0.3536	22627.50	3.7960	3.7960	-0.9477	24.93	-0.05	-0.050			
0.3545	22688.05	3.7950	3.7950	-0.9431	24.93	-0.05	-0.050			
0.3554	22748.41	3.7940	3.7940	-0.9381	24.90	-0.08	-0.050			
0.3564	22808.33	3.7930	3.7931	-0.9334	24.90	-0.08	-0.050			
0.3573	22868.03	3.7920	3.7920	-0.9296	24.90	-0.08	-0.050			
0.3582	22927.39	3.7910	3.7910	-0.9249	24.90	-0.08	-0.050			
0.3592	22986.08	3.7900	3.7900	-0.9191	24.89	-0.09	-0.050			
0.3601	23045.00	3.7890	3.7890	-0.9145	24.88	-0.10	-0.050	0.258	0.509	
0.3610	23103.16	3.7880	3.7880	-0.9086	24.88	-0.10	-0.050			
0.3619	23161.10	3.7870	3.7869	-0.9031	24.87	-0.11	-0.050			
0.3628	23218.32	3.7860	3.7860	-0.8968	24.87	-0.11	-0.050			
0.3637	23275.54	3.7850	3.7850	-0.8931	24.86	-0.12	-0.050			
0.3646	23332.51	3.7840	3.7841	-0.8882	24.86	-0.12	-0.050			
0.3655	23389.02	3.7830	3.7830	-0.8843	24.86	-0.12	-0.050			
0.3663	23445.86	3.7820	3.7821	-0.8802	24.85	-0.13	-0.050			
0.3672	23502.21	3.7810	3.7810	-0.8757	24.85	-0.13	-0.050			
0.3681	23558.34	3.7800	3.7800	-0.8708	24.85	-0.13	-0.050			
0.3690	23613.91	3.7790	3.7791	-0.8654	24.84	-0.14	-0.050			
0.3698	23669.14	3.7780	3.7779	-0.8607	24.84	-0.14	-0.050			
0.3707	23723.92	3.7770	3.7769	-0.8565	24.83	-0.15	-0.050			
0.3715	23778.48	3.7760	3.7759	-0.8508	24.84	-0.14	-0.050			
0.3724	23832.67	3.7750	3.7750	-0.8464	24.84	-0.14	-0.050			
0.3732	23886.41	3.7740	3.7740	-0.8426	24.84	-0.14	-0.050			
0.3741	23940.03	3.7730	3.7731	-0.8378	24.85	-0.13	-0.050			
0.3749	23993.36	3.7720	3.7720	-0.8338	24.85	-0.13	-0.050			
0.3757	24046.49	3.7710	3.7710	-0.8304	24.85	-0.13	-0.050			
0.3766	24099.37	3.7700	3.7700	-0.8272	24.85	-0.13	-0.050			
0.3774	24152.04	3.7690	3.7689	-0.8240	24.85	-0.13	-0.050			
0.3782	24204.74	3.7680	3.7680	-0.8213	24.86	-0.12	-0.050			
0.3790	24257.14	3.7670	3.7671	-0.8172	24.86	-0.12	-0.050			
0.3798	24308.97	3.7660	3.7660	-0.8141	24.86	-0.12	-0.050			
0.3806	24360.72	3.7650	3.7650	-0.8108	24.87	-0.11	-0.050	0.501	0.517	
0.3814	24412.40	3.7640	3.7641	-0.8083	24.88	-0.10	-0.050			
0.3823	24464.15	3.7630	3.7631	-0.8055	24.88	-0.10	-0.050			
0.3831	24515.32	3.7620	3.7619	-0.8040	24.88	-0.10	-0.050			
0.3839	24566.95	3.7610	3.7610	-0.8027	24.88	-0.10	-0.050			
0.3847	24618.09	3.7600	3.7600	-0.8008	24.90	-0.08	-0.050			
0.3855	24669.12	3.7590	3.7590	-0.7985	24.90	-0.08	-0.050			
0.3862	24719.99	3.7580	3.7580	-0.7972	24.90	-0.08	-0.050			
0.3870	24770.37	3.7570	3.7569	-0.7964	24.90	-0.08	-0.050			
0.3878	24821.20	3.7560	3.7561	-0.7962	24.90	-0.08	-0.050			
0.3886	24871.84	3.7550	3.7550	-0.7965	24.90	-0.08	-0.050			
0.3894	24922.46	3.7540	3.7540	-0.7951	24.90	-0.08	-0.050			
0.3902	24973.30	3.7530	3.7530	-0.7958	24.92	-0.06	-0.050			
0.3910	25024.26	3.7520	3.7519	-0.7957	24.93	-0.05	-0.050			
0.3918	25074.98	3.7510	3.7510	-0.7958	24.93	-0.05	-0.050			
0.3926	25125.61	3.7500	3.7500	-0.7968	24.93	-0.05	-0.050			
0.3934	25176.13	3.7490	3.7489	-0.7986	24.93	-0.05	-0.050			
0.3942	25227.15	3.7480	3.7479	-0.8010	24.93	-0.05	-0.050			
0.3950	25278.36	3.7470	3.7470	-0.8033	24.93	-0.05	-0.050			
0.3958	25329.41	3.7460	3.7461	-0.8057	24.93	-0.05	-0.050			
0.3966	25380.66	3.7450	3.7450	-0.8100	24.92	-0.06	-0.050			
0.3974	25432.24	3.7440	3.7440	-0.8141	24.91	-0.07	-0.050			
0.3982	25484.06	3.7430	3.7431	-0.8186	24.90	-0.08	-0.050			
0.3990	25536.15	3.7420	3.7419	-0.8220	24.90	-0.08	-0.050			
0.3998	25588.28	3.7410	3.7410	-0.8277	24.90	-0.08	-0.050			
0.4006	25641.23	3.7400	3.7400	-0.8345	24.90	-0.08	-0.050	0.450	0.505	
0.4015	25694.26	3.7390	3.7390	-0.8406	24.90	-0.08	-0.050			
0.4023	25747.93	3.7380	3.7380	-0.8468	24.89	-0.09	-0.050			
0.4032	25801.83	3.7370	3.7370	-0.8543	24.88	-0.10	-0.050			
0.4040	25856.43	3.7360	3.7360	-0.8625	24.87	-0.11	-0.050			
0.4049	25911.41	3.7350	3.7350	-0.8726	24.88	-0.10	-0.050			
0.4057	25967.55	3.7340	3.7341	-0.8818	24.88	-0.10	-0.050			
0.4066	26024.28	3.7330	3.7328	-0.8913	24.88	-0.10	-0.050			
0.4075	26081.44	3.7320	3.7319	-0.9008	24.86	-0.12	-0.050			
0.4084	26139.25	3.7310	3.7311	-0.9098	24.86	-0.12	-0.050			
0.4093	26197.13	3.7300	3.7301	-0.9213	24.86	-0.12	-0.050			
0.4103	26256.05	3.7290	3.7290	-0.9316	24.86	-0.12	-0.050			
0.4112	26315.80	3.7280	3.7279	-0.9428	24.86	-0.12	-0.050			
0.4121	26376.12	3.7270	3.7270	-0.9557	24.86	-0.12	-0.050			
0.4131	26436.80	3.7260	3.7261	-0.9690	24.86	-0.12	-0.050			
0.4140	26498.99	3.7250	3.7251	-0.9828	24.86	-0.12	-0.050			
0.4150	26561.86	3.7240	3.7240	-0.9958	24.86	-0.12	-0.050			
0.4160	26625.72	3.7230	3.7229	-1.0115	24.85	-0.13	-0.050			
0.4170	26690.52	3.7220	3.7220	-1.0264	24.86	-0.12	-0.050			
0.4181	26756.15	3.7210	3.7208	-1.0412	24.85	-0.13	-0.050			
0.4191	26823.20	3.7200	3.7201	-1.0574	24.86	-0.12	-0.050			
0.4202	26890.56	3.7190	3.7191	-1.0754	24.86	-0.12	-0.050	0.454	0.507	
0.4212	26959.62	3.7180	3.7180	-1.0940	24.86	-0.12	-0.050			
0.4223	27029.76	3.7170	3.7169	-1.1108	24.87	-0.11	-0.050			
0.4235	27101.21	3.7160	3.7161	-1.1293	24.87	-0.11	-0.050			
0.4246	27173.64	3.7150	3.7149	-1.1488	24.87	-0.11	-0.050			
0.4257	27247.87	3.7140	3.7140	-1.1684	24.87	-0.11	-0.050			
0.4269	27323.31	3.7130	3.7130	-1.1887	24.88	-0.10	-0.050			
0.4281	27399.72	3.7120	3.7118	-1.2087	24.86	-0.12	-0.050			
0.4293	27477.82	3.7110	3.7111	-1.2284	24.87	-0.11	-0.050			
0.4306	27556.72	3.7100	3.7099	-1.2475	24.86	-0.12	-0.050			
0.4318	27637.32	3.7090	3.7091	-1.2682	24.86	-0.12	-0.050			
0.4331	27719.05	3.7080	3.7080	-1.2892	24.86	-0.12	-0.050			
0.4344	27801.91	3.7070	3.7069	-1.3093	24.86	-0.12	-0.050			
0.4357	27886.31	3.7060	3.7060	-1.3300	24.86	-0.12	-0.050			
0.4371	27972.35	3.7050	3.7050	-1.3517	24.86	-0.12	-0.050			
0.4384	28059.35	3.7040	3.7040	-1.3730	24.86	-0.12	-0.050			
0.4398	28147.77	3.7030	3.7031	-1.3939	24.86	-0.12	-0.050	0.448	0.577	
0.4412	28238.04	3.7020	3.7021	-1.4140	24.86	-0.12	-0.050			
0.4426	28329.37	3.7010	3.7009	-1.4341	24.86	-0.12	-0.050			
0.4441	28422.11	3.7000	3.6999	-1.4529	24.87	-0.11	-0.050			
0.4456	28515.56	3.6990	3.6989	-1.4719	24.86	-0.12	-0.050			
0.4471	28611.25	3.6980	3.6980	-1.4915	24.86	-0.12	-0.050			
0.4486	28707.44	3.6970	3.6969	-1.5117	24.88	-0.10	-0.050			
0.4501	28804.69	3.6960	3.6959	-1.5310	24.87	-0.11	-0.050			
0.4516	28903.30	3.6950	3.6950	-1.5508	24.88	-0.10	-0.050			
0.4532	29002.91	3.6940	3.6940	-1.5715	24.87	-0.11	-0.050			
0.4547	29103.56	3.6930	3.6930	-1.5922	24.88	-0.10	-0.050			
0.4563	29206.05	3.6920	3.6920	-1.6123	24.88	-0.10	-0.050			
0.4580	29309.62	3.6910	3.6911	-1.6336	24.88	-0.10	-0.050			
0.4596	29414.40	3.6900	3.6900	-1.6529	24.90	-0.08	-0.050	0.507	0.567	
0.4613	29520.86	3.6890	3.6889	-1.6730	24.89	-0.09	-0.050			
0.4629	29628.55	3.6880	3.6879	-1.6929	24.90	-0.08	-0.050			
0.4646	29737.35	3.6870	3.6870	-1.7132	24.90	-0.08	-0.050			
0.4664	29847.23	3.6860	3.6861	-1.7363	24.90	-0.08	-0.050			
0.4681	29959.10	3.6850	3.6849	-1.7574	24.90	-0.08	-0.050			
0.4699	30072.27	3.6840	3.6840	-1.7789	24.90	-0.08	-0.050			
0.4717	30187.18	3.6830	3.6831	-1.8023	24.89	-0.09	-0.050			
0.4735	30303.54	3.6820	3.6820	-1.8237	24.88	-0.10	-0.050			
0.4753	30421.09	3.6810	3.6810	-1.8446	24.88	-0.10	-0.050			
0.4772	30539.89	3.6800	3.6800	-1.8670	24.89	-0.09	-0.050			
0.4791	30661.12	3.6790	3.6789	-1.8849	24.88	-0.10	-0.050			
0.4810	30783.37	3.6780	3.6780	-1.9024	24.88	-0.10	-0.050	0.305	0.504	
0.4829	30906.10	3.6770	3.6769	-1.9176	24.87	-0.11	-0.050			
0.4848	31029.64	3.6760	3.6760	-1.9360	24.86	-0.12	-0.050			
0.4868	31153.82	3.6750	3.6749	-1.9560	24.84	-0.14	-0.050			
0.4887	31278.05	3.6740	3.6739	-1.9785	24.82	-0.16	-0.050			
0.4907	31404.34	3.6730	3.6731	-2.0013	24.82	-0.16	-0.050			
0.4927	31531.44	3.6720	3.6721	-2.0271	24.81	-0.17	-0.050			
0.4947	31660.74	3.6710	3.6711	-2.0522	24.80	-0.18	-0.050			
0.4967	31791.14	3.6700	3.6700	-2.0795	24.82	-0.16	-0.050			
0.4988	31923.38	3.6690	3.6688	-2.1086	24.82	-0.16	-0.050			
0.5009	32058.47	3.6680	3.6680	-2.1364	24.83	-0.15	-0.050	0.504	0.661	
0.5031	32195.58	3.6670	3.6669	-2.1628	24.85	-0.13	-0.050			
0.5052	32334.34	3.6660	3.6660	-2.1943	24.86	-0.12	-0.050			
0.5074	32475.56	3.6650	3.6649	-2.2261	24.89	-0.09	-0.050			
0.5097	32618.29	3.6640	3.6641	-2.2596	24.93	-0.05	-0.050			
0.5119	32763.91	3.6630	3.6629	-2.2947	24.96	-0.02	-0.050			
0.5142	32911.68	3.6620	3.6620	-2.3302	25.00	0.02	-0.050			
0.5166	33062.59	3.6610	3.6611	-2.3663	25.02	0.04	-0.050			
0.5190	33216.30	3.6600	3.6600	-2.4019	25.04	0.06	-0.050			
0.5215	33373.20	3.6590	3.6590	-2.4381	25.02	0.04	-0.050	0.241	0.492	
0.5239	33529.56	3.6580	3.6580	-2.4701	25.02	0.04	-0.050			
0.5264	33689.49	3.6570	3.6569	-2.4980	25.00	0.02	-0.050			
0.5289	33852.74	3.6560	3.6559	-2.5199	24.98	0.00	-0.050			
0.5315	34016.73	3.6550	3.6549	-2.5401	24.97	-0.01	-0.050			
0.5341	34180.10	3.6540	3.6540	-2.5636	24.96	-0.02	-0.050			
0.5367	34345.66	3.6530	3.6529	-2.5893	24.94	-0.04	-0.050			
0.5393	34512.13	3.6520	3.6520	-2.6183	24.93	-0.05	-0.050	0.455	0.592	
0.5419	34680.90	3.6510	3.6510	-2.6446	24.93	-0.05	-0.050			
0.5445	34850.10	3.6500	3.6501	-2.6731	24.93	-0.05	-0.050			
0.5472	35021.02	3.6490	3.6490	-2.7095	24.94	-0.04	-0.050			
0.5499	35194.04	3.6480	3.6481	-2.7409	24.94	-0.04	-0.050			
0.5526	35368.33	3.6470	3.6472	-2.7713	24.96	-0.02	-0.050			
0.5554	35544.96	3.6460	3.6460	-2.8062	24.96	-0.02	-0.050			
0.5582	35723.94	3.6450	3.6448	-2.8366	24.98	0.00	-0.050			
0.5610	35905.52	3.6440	3.6439	-2.8702	25.01	0.03	-0.050	0.415	0.516	
0.5639	36089.37	3.6430	3.6429	-2.9051	25.02	0.04	-0.050			
0.5668	36277.02	3.6420	3.6418	-2.9426	25.03	0.05	-0.050			
0.5698	36467.16	3.6410	3.6410	-2.9796	25.04	0.06	-0.050			
0.5728	36659.84	3.6400	3.6401	-3.0181	25.04	0.06	-0.050			
0.5759	36856.31	3.6390	3.6391	-3.0612	25.02	0.04	-0.050			
0.5790	37057.51	3.6380	3.6380	-3.0997	25.02	0.04	-0.050	0.632	0.709	
0.5821	37255.09	3.6370	3.6369	-3.1268	25.01	0.03	-0.050			
0.5852	37455.28	3.6360	3.6359	-3.1567	24.98	0.00	-0.050			
0.5884	37657.94	3.6350	3.6351	-3.1885	24.98	0.00	-0.050			
0.5916	37863.68	3.6340	3.6340	-3.2147	25.00	0.02	-0.050			
0.5948	38067.09	3.6330	3.6330	-3.2584	24.98	0.00	-0.050			
0.5981	38276.78	3.6320	3.6318	-3.2956	25.01	0.03	-0.050			
0.6014	38489.44	3.6310	3.6310	-3.3332	25.01	0.03	-0.050	0.466	0.593	
0.6048	38706.43	3.6300	3.6300	-3.3622	25.03	0.05	-0.050			
0.6083	38930.91	3.6290	3.6290	-3.3480	25.03	0.05	-0.050			
0.6117	39149.93	3.6280	3.6279	-3.3468	25.01	0.03	-0.050			
0.6151	39366.68	3.6270	3.6268	-3.3447	24.97	-0.01	-0.050			
0.6185	39583.37	3.6260	3.6262	-3.3480	24.94	-0.04	-0.050			
0.6218	39797.48	3.6250	3.6250	-3.3402	24.93	-0.05	-0.050	0.401	0.495	
0.6252	40012.87	3.6240	3.6242	-3.3323	24.92	-0.06	-0.050			
0.6285	40225.13	3.6230	3.6230	-3.3097	24.94	-0.04	-0.050			
0.6318	40436.03	3.6220	3.6218	-3.2887	24.97	-0.01	-0.050			
0.6351	40645.37	3.6210	3.6210	-3.2622	25.00	0.02	-0.050			
0.6383	40850.28	3.6200	3.6200	-3.2450	25.02	0.04	-0.050			
0.6415	41053.30	3.6190	3.6191	-3.2297	25.04	0.06	-0.050	0.432	0.636	
0.6446	41256.75	3.6180	3.6181	-3.2158	25.04	0.06	-0.050			
0.6479	41464.88	3.6170	3.6169	-3.2116	25.02	0.04	-0.050			
0.6512	41677.68	3.6160	3.6159	-3.1847	24.98	0.00	-0.050			
0.6545	41887.97	3.6150	3.6149	-3.1589	24.98	0.00	-0.050			
0.6577	42095.52	3.6140	3.6138	-3.1271	24.98	0.00	-0.050			
0.6608	42293.38	3.6130	3.6129	-3.0785	25.01	0.03	-0.050	0.321	0.538	
0.6639	42491.16	3.6120	3.6121	-3.0250	25.03	0.05	-0.050			
0.6669	42684.42	3.6110	3.6110	-2.9729	25.06	0.08	-0.050			
0.6700	42877.37	3.6100	3.6102	-2.9158	25.06	0.08	-0.050			
0.6729	43065.98	3.6090	3.6090	-2.8569	25.06	0.08	-0.050			
0.6757	43246.40	3.6080	3.6079	-2.7930	25.04	0.06	-0.050			
0.6784	43420.27	3.6070	3.6069	-2.7322	25.00	0.02	-0.050			
0.6811	43590.82	3.6060	3.6058	-2.6657	24.98	0.00	-0.050	0.171	0.562	
0.6837	43754.55	3.6050	3.6050	-2.5998	24.96	-0.02	-0.050			
0.6861	43913.57	3.6040	3.6041	-2.5328	24.94	-0.04	-0.050			
0.6886	44070.29	3.6030	3.6031	-2.4779	24.90	-0.08	-0.050			
0.6911	44227.60	3.6020	3.6021	-2.4305	24.90	-0.08	-0.050			
0.6934	44379.76	3.6010	3.6011	-2.3873	24.88	-0.10	-0.050			
0.6958	44528.25	3.6000	3.5999	-2.3459	24.88	-0.10	-0.050			
0.6981	44675.37	3.5990	3.5987	-2.3141	24.88	-0.10	-0.050			
0.7003	44821.95	3.5980	3.5979	-2.2848	24.90	-0.08	-0.050	0.424	0.574	
0.7026	44964.19	3.5970	3.5971	-2.2462	24.93	-0.05	-0.050			
0.7047	45102.97	3.5960	3.5962	-2.2090	24.95	-0.03	-0.050			
0.7069	45241.50	3.5950	3.5950	-2.1802	24.94	-0.04	-0.050			
0.7091	45380.58	3.5940	3.5940	-2.1573	24.97	-0.01	-0.050			
0.7112	45517.71	3.5930	3.5929	-2.1351	24.98	0.00	-0.050			
0.7134	45654.62	3.5920	3.5920	-2.1127	24.99	0.01	-0.050			
0.7155	45791.48	3.5910	3.5909	-2.0927	25.01	0.03	-0.050			
0.7176	45925.86	3.5900	3.5899	-2.0691	25.01	0.03	-0.050			
0.7196	46055.60	3.5890	3.5889	-2.0412	25.01	0.03	-0.050	0.534	0.655	
0.7216	46184.01	3.5880	3.5880	-2.0124	25.01	0.03	-0.050			
0.7236	46311.50	3.5870	3.5871	-1.9865	25.02	0.04	-0.050			
0.7256	46439.79	3.5860	3.5861	-1.9640	25.04	0.06	-0.050			
0.7276	46565.87	3.5850	3.5849	-1.9378	25.06	0.08	-0.050			
0.7295	46688.26	3.5840	3.5840	-1.9122	25.09	0.11	-0.050			
0.7314	46809.50	3.5830	3.5831	-1.8851	25.10	0.12	-0.050			
0.7333	46929.02	3.5820	3.5820	-1.8628	25.11	0.13	-0.050			
0.7351	47046.77	3.5810	3.5810	-1.8396	25.13	0.15	-0.050			
0.7369	47162.37	3.5800	3.5800	-1.8171	25.14	0.16	-0.050			
0.7387	47277.66	3.5790	3.5791	-1.7971	25.14	0.16	-0.050			
0.7405	47391.52	3.5780	3.5780	-1.7782	25.14	0.16	-0.050			
0.7422	47503.16	3.5770	3.5772	-1.7610	25.13	0.15	-0.050			
0.7440	47613.62	3.5760	3.5760	-1.7435	25.12	0.14	-0.050			
0.7457	47723.11	3.5750	3.5749	-1.7312	25.10	0.12	-0.050			
0.7474	47831.87	3.5740	3.5739	-1.7168	25.09	0.11	-0.050			
0.7491	47939.66	3.5730	3.5729	-1.7055	25.08	0.10	-0.050			
0.7507	48047.73	3.5720	3.5721	-1.6986	25.06	0.08	-0.050			
0.7524	48155.04	3.5710	3.5710	-1.6871	25.06	0.08	-0.050			
0.7541	48261.85	3.5700	3.5699	-1.6828	25.04	0.06	-0.050			
0.7557	48367.73	3.5690	3.5691	-1.6779	25.04	0.06	-0.050			
0.7574	48474.05	3.5680	3.5679	-1.6814	25.04	0.06	-0.050			
0.7591	48580.80	3.5670	3.5669	-1.6840	25.03	0.05	-0.050			
0.7608	48688.18	3.5660	3.5659	-1.6859	25.03	0.05	-0.050			
0.7624	48794.56	3.5650	3.5649	-1.6885	25.04	0.06	-0.050			
0.7641	48902.47	3.5640	3.5639	-1.6891	25.06	0.08	-0.050			
0.7658	49011.32	3.5630	3.5630	-1.6900	25.06	0.08	-0.050			
0.7675	49119.96	3.5620	3.5618	-1.6890	25.08	0.10	-0.050			
0.7692	49228.98	3.5610	3.5608	-1.6880	25.08	0.10	-0.050			
0.7709	49339.39	3.5600	3.5600	-1.6865	25.09	0.11	-0.050			
0.7726	49447.81	3.5590	3.5589	-1.6832	25.09	0.11	-0.050			
0.7743	49557.08	3.5580	3.5580	-1.6777	25.09	0.11	-0.050			
0.7760	49665.95	3.5570	3.5571	-1.6700	25.09	0.11	-0.050			
0.7777	49775.00	3.5560	3.5560	-1.6563	25.09	0.11	-0.050			
0.7794	49883.07	3.5550	3.5551	-1.6472	25.09	0.11	-0.050			
0.7811	49990.56	3.5540	3.5540	-1.6305	25.09	0.11	-0.050	0.452	0.610	
0.7828	50096.92	3.5530	3.5529	-1.6106	25.08	0.10	-0.050			
0.7844	50200.99	3.5520	3.5521	-1.5869	25.06	0.08	-0.050			
0.7860	50304.19	3.5510	3.5509	-1.5626	25.06	0.08	-0.050			
0.7876	50403.37	3.5500	3.5502	-1.5320	25.04	0.06	-0.050			
0.7891	50501.11	3.5490	3.5490	-1.5019	25.04	0.06	-0.050			
0.7906	50597.02	3.5480	3.5480	-1.4693	25.04	0.06	-0.050			
0.7920	50691.05	3.5470	3.5471	-1.4376	25.04	0.06	-0.050			
0.7935	50783.21	3.5460	3.5460	-1.4071	25.04	0.06	-0.050			
0.7949	50872.39	3.5450	3.5453	-1.3740	25.05	0.07	-0.050			
0.7963	50960.16	3.5440	3.5439	-1.3431	25.06	0.08	-0.050			
0.7976	51044.67	3.5430	3.5429	-1.3116	25.06	0.08	-0.050			
0.7989	51126.88	3.5420	3.5420	-1.2758	25.06	0.08	-0.050			
0.8001	51206.97	3.5410	3.5410	-1.2443	25.06	0.08	-0.050			
0.8013	51283.31	3.5400	3.5400	-1.2089	25.06	0.08	-0.050			
0.8025	51359.87	3.5390	3.5390	-1.1831	25.07	0.09	-0.050			
0.8036	51432.70	3.5380	3.5380	-1.1558	25.09	0.11	-0.050			
0.8048	51504.96	3.5370	3.5370	-1.1302	25.09	0.11	-0.050			
0.8058	51573.95	3.5360	3.5360	-1.1075	25.09	0.11	-0.050			
0.8069	51642.60	3.5350	3.5350	-1.0849	25.09	0.11	-0.050			
0.8080	51710.71	3.5340	3.5340	-1.0682	25.07	0.09	-0.050			
0.8090	51776.36	3.5330	3.5332	-1.0520	25.06	0.08	-0.050			
0.8100	51841.39	3.5320	3.5319	-1.0363	25.05	0.07	-0.050			
0.8110	51905.14	3.5310	3.5310	-1.0250	25.04	0.06	-0.050			
0.8120	51969.29	3.5300	3.5298	-1.0145	25.05	0.07	-0.050			
0.8130	52031.88	3.5290	3.5289	-1.0086	25.04	0.06	-0.050			
0.8140	52094.73	3.5280	3.5280	-1.0043	25.04	0.06	-0.050			
0.8150	52157.08	3.5270	3.5269	-0.9993	25.02	0.04	-0.050			
0.8159	52219.60	3.5260	3.5260	-0.9959	25.02	0.04	-0.050			
0.8169	52282.96	3.5250	3.5250	-0.9952	25.02	0.04	-0.050			
0.8179	52345.93	3.5240	3.5240	-0.9947	25.01	0.03	-0.050			
0.8189	52409.36	3.5230	3.5230	-0.9947	25.00	0.02	-0.050			
0.8199	52473.68	3.5220	3.5220	-0.9982	24.99	0.01	-0.050			
0.8209	52537.50	3.5210	3.5210	-0.9982	24.98	0.00	-0.050	0.434	0.578	
0.8219	52601.87	3.5200	3.5199	-0.9971	24.97	-0.01	-0.050			
0.8229	52666.99	3.5190	3.5189	-0.9944	24.96	-0.02	-0.050			
0.8239	52731.38	3.5180	3.5179	-0.9922	24.96	-0.02	-0.050			
0.8249	52796.05	3.5170	3.5170	-0.9887	24.96	-0.02	-0.050			
0.8259	52860.13	3.5160	3.5160	-0.9843	24.96	-0.02	-0.050			
0.8269	52924.29	3.5150	3.5149	-0.9783	24.96	-0.02	-0.050			
0.8279	52988.18	3.5140	3.5140	-0.9731	24.97	-0.01	-0.050			
0.8289	53050.86	3.5130	3.5129	-0.9644	24.98	0.00	-0.050			
0.8299	53112.94	3.5120	3.5120	-0.9546	24.99	0.01	-0.050			
0.8308	53174.39	3.5110	3.5110	-0.9436	25.01	0.03	-0.050			
0.8318	53234.54	3.5100	3.5099	-0.9322	25.01	0.03	-0.050			
0.8327	53293.25	3.5090	3.5090	-0.9230	25.02	0.04	-0.050			
0.8336	53352.05	3.5080	3.5081	-0.9136	25.02	0.04	-0.050			
0.8345	53408.67	3.5070	3.5070	-0.9071	25.02	0.04	-0.050			
0.8354	53465.87	3.5060	3.5060	-0.8997	25.03	0.05	-0.050			
0.8363	53522.10	3.5050	3.5052	-0.8934	25.02	0.04	-0.050			
0.8371	53577.03	3.5040	3.5039	-0.8890	25.03	0.05	-0.050			
0.8380	53631.29	3.5030	3.5031	-0.8912	25.03	0.05	-0.050			
0.8388	53685.80	3.5020	3.5020	-0.8911	25.04	0.06	-0.050			
0.8397	53739.98	3.5010	3.5010	-0.8979	25.04	0.06	-0.050			
0.8405	53794.83	3.5000	3.4998	-0.9109	25.04	0.06	-0.050	0.443	0.631	
0.8414	53850.17	3.4990	3.4990	-0.9226	25.05	0.07	-0.050			
0.8423	53906.80	3.4980	3.4980	-0.9409	25.06	0.08	-0.050			
0.8432	53963.21	3.4970	3.4972	-0.9616	25.07	0.09	-0.050			
0.8441	54020.39	3.4960	3.4962	-0.9968	25.09	0.11	-0.050			
0.8450	54077.62	3.4950	3.4951	-1.0354	25.09	0.11	-0.050			
0.8459	54139.10	3.4940	3.4941	-1.0871	25.10	0.12	-0.050			
0.8469	54201.32	3.4930	3.4932	-1.1520	25.10	0.12	-0.050			
0.8479	54266.86	3.4920	3.4922	-1.2305	25.10	0.12	-0.050			
0.8490	54336.09	3.4910	3.4912	-1.3068	25.10	0.12	-0.050			
0.8502	54415.53	3.4900	3.4903	-1.4005	25.09	0.11	-0.050			
0.8516	54499.73	3.4890	3.4891	-1.4923	25.08	0.10	-0.050			
0.8531	54596.76	3.4880	3.4880	-1.5977	25.09	0.11	-0.050			
0.8547	54701.15	3.4870	3.4868	-1.6981	25.07	0.09	-0.050			
0.8565	54815.57	3.4860	3.4858	-1.8095	25.08	0.10	-0.050			
0.8585	54940.92	3.4850	3.4848	-1.9102	25.07	0.09	-0.050			
0.8605	55072.27	3.4840	3.4837	-2.0084	25.10	0.12	-0.050	0.442	0.629	
0.8627	55210.04	3.4830	3.4829	-2.1050	25.09	0.11	-0.050			
0.8649	55356.76	3.4820	3.4818	-2.1830	25.06	0.08	-0.050			
0.8673	55509.09	3.4810	3.4810	-2.2585	25.04	0.06	-0.050			
0.8698	55665.89	3.4800	3.4800	-2.3228	25.04	0.06	-0.050			
0.8723	55828.15	3.4790	3.4790	-2.3706	25.04	0.06	-0.050			
0.8748	55989.83	3.4780	3.4780	-2.4008	25.02	0.04	-0.050			
0.8774	56151.28	3.4770	3.4770	-2.4166	25.02	0.04	-0.050			
0.8799	56315.28	3.4760	3.4760	-2.4200	25.04	0.06	-0.050	0.508	0.779	
0.8825	56477.21	3.4750	3.4748	-2.4094	25.02	0.04	-0.050			
0.8849	56635.51	3.4740	3.4744	-2.3897	25.01	0.03	-0.050			
0.8874	56791.73	3.4730	3.4732	-2.3591	25.01	0.03	-0.050			
0.8898	56945.34	3.4720	3.4720	-2.3217	25.01	0.03	-0.050			
0.8921	57095.31	3.4710	3.4714	-2.2810	25.01	0.03	-0.050			
0.8944	57241.82	3.4700	3.4700	-2.2329	25.02	0.04	-0.050			
0.8967	57386.26	3.4690	3.4689	-2.1853	25.02	0.04	-0.050			
0.8988	57526.05	3.4680	3.4683	-2.1306	25.02	0.04	-0.050			
0.9010	57661.68	3.4670	3.4669	-2.0740	25.02	0.04	-0.050	0.490	0.743	
0.9030	57795.15	3.4660	3.4658	-2.0174	25.01	0.03	-0.050			
0.9051	57923.80	3.4650	3.4651	-1.9531	25.01	0.03	-0.050			
0.9070	58046.99	3.4640	3.4639	-1.8916	25.02	0.04	-0.050			
0.9089	58167.77	3.4630	3.4628	-1.8299	25.02	0.04	-0.050			
0.9107	58283.42	3.4620	3.4620	-1.7685	25.02	0.04	-0.050			
0.9124	58394.17	3.4610	3.4610	-1.7040	25.02	0.04	-0.050			
0.9141	58500.85	3.4600	3.4600	-1.6439	25.01	0.03	-0.050			
0.9157	58603.25	3.4590	3.4590	-1.5823	25.02	0.04	-0.050			
0.9172	58701.84	3.4580	3.4581	-1.5191	25.01	0.03	-0.050			
0.9187	58797.03	3.4570	3.4570	-1.4598	25.01	0.03	-0.050			
0.9201	58887.50	3.4560	3.4557	-1.3973	25.01	0.03	-0.050	0.539	0.819	
0.9215	58973.34	3.4550	3.4550	-1.3346	25.01	0.03	-0.050			
0.9228	59056.81	3.4540	3.4541	-1.2788	25.01	0.03	-0.050			
0.9240	59135.89	3.4530	3.4529	-1.2229	25.01	0.03	-0.050			
0.9252	59211.42	3.4520	3.4521	-1.1664	25.01	0.03	-0.050			
0.9263	59282.99	3.4510	3.4510	-1.1108	25.00	0.02	-0.050			
0.9274	59352.72	3.4500	3.4501	-1.0600	25.01	0.03	-0.050			
0.9284	59418.04	3.4490	3.4492	-1.0076	25.01	0.03	-0.050			
0.9294	59479.78	3.4480	3.4479	-0.9571	25.01	0.03	-0.050			
0.9303	59538.82	3.4470	3.4470	-0.9104	25.00	0.02	-0.050			
0.9312	59595.55	3.4460	3.4459	-0.8608	25.01	0.03	-0.050			
0.9320	59646.67	3.4450	3.4448	-0.8140	25.01	0.03	-0.050			
0.9327	59694.93	3.4440	3.4440	-0.7714	25.01	0.03	-0.050			
0.9335	59741.07	3.4430	3.4432	-0.7332	25.01	0.03	-0.050			
0.9341	59784.00	3.4420	3.4420	-0.6885	25.01	0.03	-0.050			
0.9348	59824.97	3.4410	3.4409	-0.6557	25.01	0.03	-0.050			
0.9354	59863.67	3.4400	3.4401	-0.6184	25.01	0.03	-0.050			
0.9359	59900.45	3.4390	3.4390	-0.5918	25.01	0.03	-0.050			
0.9365	59935.80	3.4380	3.4379	-0.5663	25.01	0.03	-0.050			
0.9370	59969.31	3.4370	3.4369	-0.5362	25.01	0.03	-0.050			
0.9375	60001.17	3.4360	3.4359	-0.5139	25.01	0.03	-0.050			
0.9380	60032.61	3.4350	3.4349	-0.4900	25.01	0.03	-0.050			
0.9384	60059.96	3.4340	3.4340	-0.4683	25.01	0.03	-0.050			
0.9389	60088.33	3.4330	3.4330	-0.4483	25.01	0.03	-0.050			
0.9393	60115.06	3.4320	3.4319	-0.4320	25.01	0.03	-0.050			
0.9397	60142.26	3.4310	3.4310	-0.4169	25.01	0.03	-0.050			
0.9401	60167.10	3.4300	3.4301	-0.4041	25.01	0.03	-0.050			
0.9405	60192.00	3.4290	3.4291	-0.3897	25.01	0.03	-0.050			
0.9409	60215.36	3.4280	3.4281	-0.3790	25.01	0.03	-0.050	0.229	0.706	
0.9412	60238.57	3.4270	3.4269	-0.3662	25.01	0.03	-0.050			
0.9416	60260.95	3.4260	3.4260	-0.3584	25.02	0.04	-0.050			
0.9419	60282.93	3.4250	3.4249	-0.3478	25.02	0.04	-0.050			
0.9422	60303.63	3.4240	3.4240	-0.3398	25.02	0.04	-0.050			
0.9426	60324.44	3.4230	3.4230	-0.3308	25.02	0.04	-0.050			
0.9429	60345.01	3.4220	3.4220	-0.3252	25.02	0.04	-0.050			
0.9432	60365.09	3.4210	3.4209	-0.3178	25.02	0.04	-0.050			
0.9435	60384.83	3.4200	3.4199	-0.3134	25.01	0.03	-0.050			
0.9438	60403.98	3.4190	3.4190	-0.3067	25.01	0.03	-0.050			
0.9441	60422.74	3.4180	3.4181	-0.3007	25.01	0.03	-0.050			
0.9444	60441.52	3.4170	3.4170	-0.2983	25.01	0.03	-0.050			
0.9447	60460.73	3.4160	3.4161	-0.2952	25.01	0.03	-0.050			
0.9450	60479.52	3.4150	3.4150	-0.2916	25.01	0.03	-0.050			
0.9453	60497.83	3.4140	3.4140	-0.2875	25.01	0.03	-0.050			
0.9456	60516.12	3.4130	3.4129	-0.2840	25.00	0.02	-0.050			
0.9458	60533.84	3.4120	3.4120	-0.2799	25.00	0.02	-0.050			
0.9461	60551.65	3.4110	3.4110	-0.2768	24.99	0.01	-0.050			
0.9464	60569.13	3.4100	3.4099	-0.2750	24.99	0.01	-0.050			
0.9467	60586.64	3.4090	3.4090	-0.2721	24.99	0.01	-0.050			
0.9469	60603.35	3.4080	3.4080	-0.2693	24.99	0.01	-0.050			
0.9472	60620.52	3.4070	3.4070	-0.2670	24.99	0.01	-0.050			
0.9475	60637.44	3.4060	3.4061	-0.2646	24.98	0.00	-0.050			
0.9477	60654.12	3.4050	3.4052	-0.2631	24.98	0.00	-0.050			
0.9480	60670.72	3.4040	3.4039	-0.2607	24.98	0.00	-0.050			
0.9482	60687.23	3.4030	3.4031	-0.2593	24.98	0.00	-0.050			
0.9485	60703.63	3.4020	3.4020	-0.2573	24.98	0.00	-0.050			
0.9488	60720.05	3.4010	3.4009	-0.2557	24.98	-0.00	-0.050			
0.9490	60736.35	3.4000	3.3999	-0.2539	24.98	-0.00	-0.050			
0.9493	60752.55	3.3990	3.3990	-0.2524	24.97	-0.01	-0.050			
0.9495	60768.65	3.3980	3.3980	-0.2508	24.97	-0.01	-0.050			
0.9498	60784.40	3.3970	3.3970	-0.2487	24.97	-0.01	-0.050			
0.9500	60800.28	3.3960	3.3960	-0.2474	24.98	-0.00	-0.050			
0.9502	60815.80	3.3950	3.3951	-0.2458	24.98	-0.00	-0.050			
0.9505	60831.50	3.3940	3.3940	-0.2447	24.98	-0.00	-0.050			
0.9507	60847.13	3.3930	3.3930	-0.2437	24.97	-0.01	-0.050			
0.9510	60863.10	3.3920	3.3922	-0.2434	24.97	-0.01	-0.050			
0.9512	60878.64	3.3910	3.3910	-0.2421	24.97	-0.01	-0.050			
0.9515	60894.15	3.3900	3.3900	-0.2408	24.97	-0.01	-0.050			
0.9517	60909.24	3.3890	3.3890	-0.2403	24.96	-0.02	-0.050			
0.9519	60924.23	3.3880	3.3880	-0.2384	24.96	-0.02	-0.050			
0.9522	60939.76	3.3870	3.3869	-0.2369	24.96	-0.02	-0.050			
0.9524	60954.89	3.3860	3.3860	-0.2359	24.96	-0.02	-0.050			
0.9527	60969.90	3.3850	3.3849	-0.2347	24.96	-0.02	-0.050			
0.9529	60984.89	3.3840	3.3840	-0.2337	24.96	-0.02	-0.050			
0.9531	60999.78	3.3830	3.3830	-0.2326	24.96	-0.02	-0.050			
0.9534	61014.64	3.3820	3.3820	-0.2316	24.96	-0.02	-0.050			
0.9536	61029.38	3.3810	3.3809	-0.2308	24.96	-0.02	-0.050			
0.9538	61044.15	3.3800	3.3800	-0.2299	24.96	-0.02	-0.050			
0.9540	61058.84	3.3790	3.3790	-0.2290	24.96	-0.02	-0.050			
0.9543	61073.57	3.3780	3.3779	-0.2276	24.96	-0.02	-0.050			
0.9545	61088.29	3.3770	3.3772	-0.2268	24.96	-0.02	-0.050			
0.9547	61102.77	3.3760	3.3762	-0.2256	24.96	-0.02	-0.050			
0.9550	61116.99	3.3750	3.3749	-0.2250	24.96	-0.02	-0.050			
0.9552	61131.35	3.3740	3.3739	-0.2240	24.96	-0.02	-0.050			
0.9554	61145.65	3.3730	3.3729	-0.2229	24.96	-0.02	-0.050			
0.9556	61159.98	3.3720	3.3719	-0.2210	24.96	-0.02	-0.050			
0.9558	61174.09	3.3710	3.3710	-0.2198	24.96	-0.02	-0.050			
0.9561	61188.12	3.3700	3.3700	-0.2187	24.96	-0.02	-0.050			
0.9563	61201.88	3.3690	3.3690	-0.2180	24.96	-0.02	-0.050			
0.9565	61215.81	3.3680	3.3681	-0.2171	24.96	-0.02	-0.050			
0.9567	61229.48	3.3670	3.3669	-0.2158	24.96	-0.02	-0.050			
0.9569	61243.25	3.3660	3.3660	-0.2151	24.96	-0.02	-0.050			
0.9571	61256.99	3.3650	3.3651	-0.2143	24.96	-0.02	-0.050			
0.9574	61270.98	3.3640	3.3640	-0.2140	24.96	-0.02	-0.050			
0.9576	61284.52	3.3630	3.3632	-0.2134	24.96	-0.02	-0.050			
0.9578	61298.15	3.3620	3.3621	-0.2125	24.96	-0.02	-0.050			
0.9580	61311.48	3.3610	3.3608	-0.2113	24.96	-0.02	-0.050			
0.9582	61324.99	3.3600	3.3600	-0.2106	24.97	-0.01	-0.050			
0.9584	61338.44	3.3590	3.3589	-0.2099	24.97	-0.01	-0.050			
0.9586	61351.72	3.3580	3.3581	-0.2091	24.98	-0.00	-0.050			
0.9588	61365.04	3.3570	3.3571	-0.2087	24.98	0.00	-0.050			
0.9590	61378.38	3.3560	3.3559	-0.2082	24.98	0.00	-0.050			
0.9592	61391.73	3.3550	3.3551	-0.2077	24.98	0.00	-0.050			
0.9595	61405.19	3.3540	3.3539	-0.2066	24.98	0.00	-0.050			
0.9597	61418.39	3.3530	3.3530	-0.2059	24.98	0.00	-0.050			
0.9599	61431.43	3.3520	3.3521	-0.2050	24.99	0.01	-0.050			
0.9601	61444.73	3.3510	3.3510	-0.2037	24.99	0.01	-0.050			
0.9603	61457.74	3.3500	3.3499	-0.2029	25.00	0.02	-0.050			
0.9605	61471.18	3.3490	3.3489	-0.2027	25.00	0.02	-0.050			
0.9607	61484.03	3.3480	3.3478	-0.2017	25.00	0.02	-0.050	0.423	0.734	
0.9609	61496.90	3.3470	3.3469	-0.2005	25.01	0.03	-0.050			
0.9611	61509.59	3.3460	3.3459	-0.1992	25.01	0.03	-0.050			
0.9613	61522.30	3.3450	3.3451	-0.1981	25.01	0.03	-0.050			
0.9615	61534.79	3.3440	3.3441	-0.1977	25.01	0.03	-0.050			
0.9617	61547.44	3.3430	3.3431	-0.1969	25.01	0.03	-0.050			
0.9619	61560.01	3.3420	3.3420	-0.1960	25.01	0.03	-0.050			
0.9621	61572.40	3.3410	3.3409	-0.1956	25.01	0.03	-0.050			
0.9623	61584.76	3.3400	3.3400	-0.1945	25.01	0.03	-0.050			
0.9625	61597.18	3.3390	3.3389	-0.1939	25.02	0.04	-0.050			
0.9626	61609.55	3.3380	3.3380	-0.1933	25.02	0.04	-0.050			
0.9628	61621.74	3.3370	3.3370	-0.1923	25.02	0.04	-0.050			
0.9630	61634.03	3.3360	3.3359	-0.1918	25.03	0.05	-0.050			
0.9632	61646.41	3.3350	3.3350	-0.1909	25.03	0.05	-0.050			
0.9634	61658.48	3.3340	3.3339	-0.1900	25.03	0.05	-0.050			
0.9636	61670.62	3.3330	3.3330	-0.1895	25.04	0.06	-0.050			
0.9638	61682.73	3.3320	3.3319	-0.1890	25.04	0.06	-0.050			
0.9640	61694.98	3.3310	3.3311	-0.1888	25.04	0.06	-0.050			
0.9642	61707.03	3.3300	3.3301	-0.1881	25.04	0.06	-0.050			
0.9644	61719.05	3.3290	3.3290	-0.1874	25.04	0.06	-0.050			
0.9646	61731.29	3.3280	3.3280	-0.1869	25.04	0.06	-0.050			
0.9647	61743.22	3.3270	3.3271	-0.1860	25.04	0.06	-0.050			
0.9649	61755.09	3.3260	3.3260	-0.1851	25.04	0.06	-0.050			
0.9651	61766.91	3.3250	3.3249	-0.1842	25.04	0.06	-0.050			
0.9653	61778.67	3.3240	3.3241	-0.1836	25.04	0.06	-0.050			
0.9655	61790.38	3.3230	3.3229	-0.1827	25.04	0.06	-0.050			
0.9657	61802.05	3.3220	3.3220	-0.1818	25.05	0.07	-0.050			
0.9658	61813.41	3.3210	3.3210	-0.1810	25.05	0.07	-0.050			
0.9660	61824.97	3.3200	3.3200	-0.1803	25.06	0.08	-0.050			
0.9662	61836.49	3.3190	3.3190	-0.1797	25.06	0.08	-0.050			
0.9664	61847.89	3.3180	3.3180	-0.1789	25.06	0.08	-0.050			
0.9666	61859.28	3.3170	3.3171	-0.1783	25.06	0.08	-0.050			
0.9667	61870.68	3.3160	3.3159	-0.1778	25.06	0.08	-0.050			
0.9669	61881.97	3.3150	3.3150	-0.1771	25.06	0.08	-0.050			
0.9671	61893.29	3.3140	3.3140	-0.1765	25.06	0.08	-0.050			
0.9673	61904.68	3.3130	3.3130	-0.1757	25.07	0.09	-0.050			
0.9674	61915.90	3.3120	3.3120	-0.1750	25.07	0.09	-0.050			
0.9676	61927.13	3.3110	3.3110	-0.1745	25.08	0.10	-0.050			
0.9678	61938.24	3.3100	3.3100	-0.1739	25.08	0.10	-0.050			
0.9680	61949.35	3.3090	3.3090	-0.1733	25.08	0.10	-0.050			
0.9681	61960.34	3.3080	3.3080	-0.1725	25.08	0.10	-0.050			
0.9683	61971.36	3.3070	3.3070	-0.1719	25.09	0.11	-0.050			
0.9685	61982.21	3.3060	3.3061	-0.1717	25.09	0.11	-0.050			
0.9686	61993.19	3.3050	3.3052	-0.1713	25.09	0.11	-0.050			
0.9688	62004.22	3.3040	3.3041	-0.1710	25.09	0.11	-0.050			
0.9690	62015.15	3.3030	3.3029	-0.1705	25.09	0.11	-0.050			
0.9692	62026.13	3.3020	3.3019	-0.1697	25.10	0.12	-0.050			
0.9693	62036.93	3.3010	3.3010	-0.1690	25.10	0.12	-0.050			
0.9695	62047.73	3.3000	3.2999	-0.1685	25.10	0.12	-0.050			
0.9697	62058.50	3.2990	3.2989	-0.1680	25.10	0.12	-0.050			
0.9698	62069.25	3.2980	3.2979	-0.1673	25.10	0.12	-0.050			
0.9700	62079.88	3.2970	3.2969	-0.1666	25.10	0.12	-0.050			
0.9702	62090.53	3.2960	3.2959	-0.1661	25.10	0.12	-0.050			
0.9703	62101.14	3.2950	3.2952	-0.1656	25.10	0.12	-0.050			
0.9705	62111.69	3.2940	3.2940	-0.1652	25.10	0.12	-0.050			
0.9707	62122.27	3.2930	3.2931	-0.1647	25.10	0.12	-0.050			
0.9708	62132.79	3.2920	3.2921	-0.1642	25.11	0.13	-0.050			
0.9710	62143.34	3.2910	3.2911	-0.1636	25.11	0.13	-0.050			
0.9712	62153.92	3.2900	3.2900	-0.1634	25.11	0.13	-0.050			
0.9713	62164.36	3.2890	3.2891	-0.1628	25.11	0.13	-0.050			
0.9715	62174.75	3.2880	3.2879	-0.1621	25.11	0.13	-0.050			
0.9716	62185.11	3.2870	3.2868	-0.1615	25.12	0.14	-0.050			
0.9718	62195.33	3.2860	3.2859	-0.1609	25.12	0.14	-0.050			
0.9720	62205.61	3.2850	3.2851	-0.1603	25.12	0.14	-0.050			
0.9721	62215.85	3.2840	3.2840	-0.1598	25.12	0.14	-0.050			
0.9723	62226.06	3.2830	3.2830	-0.1592	25.12	0.14	-0.050			
0.9724	62236.10	3.2820	3.2820	-0.1584	25.12	0.14	-0.050			
0.9726	62246.22	3.2810	3.2812	-0.1579	25.12	0.14	-0.050			
0.9728	62256.31	3.2800	3.2801	-0.1574	25.12	0.14	-0.050			
0.9729	62266.37	3.2790	3.2790	-0.1570	25.12	0.14	-0.050			
0.9731	62276.57	3.2780	3.2780	-0.1567	25.12	0.14	-0.050			
0.9732	62286.58	3.2770	3.2770	-0.1561	25.13	0.15	-0.050			
0.9734	62296.55	3.2760	3.2760	-0.1555	25.13	0.15	-0.050			
0.9735	62306.49	3.2750	3.2750	-0.1550	25.13	0.15	-0.050			
0.9737	62316.23	3.2740	3.2740	-0.1547	25.13	0.15	-0.050			
0.9738	62326.12	3.2730	3.2730	-0.1543	25.13	0.15	-0.050			
0.9740	62335.97	3.2720	3.2720	-0.1538	25.13	0.15	-0.050			
0.9742	62345.65	3.2710	3.2710	-0.1531	25.14	0.16	-0.050			
0.9743	62355.67	3.2700	3.2700	-0.1523	25.14	0.16	-0.050			
0.9745	62365.41	3.2690	3.2690	-0.1518	25.14	0.16	-0.050			
0.9746	62375.11	3.2680	3.2680	-0.1513	25.14	0.16	-0.050			
0.9748	62384.77	3.2670	3.2669	-0.1508	25.14	0.16	-0.050			
0.9749	62394.55	3.2660	3.2658	-0.1503	25.14	0.16	-0.050			
0.9751	62404.15	3.2650	3.2650	-0.1497	25.14	0.16	-0.050			
0.9752	62413.71	3.2640	3.2641	-0.1490	25.14	0.16	-0.050			
0.9754	62423.22	3.2630	3.2631	-0.1484	25.14	0.16	-0.050			
0.9755	62432.76	3.2620	3.2620	-0.1478	25.14	0.16	-0.050			
0.9757	62442.23	3.2610	3.2611	-0.1471	25.14	0.16	-0.050			
0.9758	62451.62	3.2600	3.2601	-0.1464	25.14	0.16	-0.050			
0.9760	62460.97	3.2590	3.2590	-0.1457	25.14	0.16	-0.050			
0.9761	62470.38	3.2580	3.2579	-0.1451	25.14	0.16	-0.050			
0.9762	62479.46	3.2570	3.2570	-0.1448	25.14	0.16	-0.050			
0.9764	62488.70	3.2560	3.2561	-0.1441	25.14	0.16	-0.050			
0.9765	62497.91	3.2550	3.2550	-0.1435	25.14	0.16	-0.050			
0.9767	62507.00	3.2540	3.2539	-0.1428	25.14	0.16	-0.050			
0.9768	62516.12	3.2530	3.2529	-0.1422	25.14	0.16	-0.050			
0.9770	62525.13	3.2520	3.2520	-0.1419	25.14	0.16	-0.050			
0.9771	62534.19	3.2510	3.2511	-0.1414	25.14	0.16	-0.050			
0.9772	62542.97	3.2500	3.2501	-0.1404	25.14	0.16	-0.050			
0.9774	62551.95	3.2490	3.2490	-0.1401	25.14	0.16	-0.050			
0.9775	62561.03	3.2480	3.2480	-0.1394	25.14	0.16	-0.050			
0.9777	62569.94	3.2470	3.2470	-0.1390	25.14	0.16	-0.050			
0.9778	62578.93	3.2460	3.2459	-0.1388	25.14	0.16	-0.050			
0.9779	62587.80	3.2450	3.2449	-0.1383	25.14	0.16	-0.050			
0.9781	62596.64	3.2440	3.2440	-0.1378	25.14	0.16	-0.050			
0.9782	62605.32	3.2430	3.2430	-0.1377	25.14	0.16	-0.050			
0.9783	62614.12	3.2420	3.2421	-0.1373	25.14	0.16	-0.050			
0.9785	62622.84	3.2410	3.2411	-0.1368	25.14	0.16	-0.050			
0.9786	62631.58	3.2400	3.2400	-0.1365	25.14	0.16	-0.050			
0.9788	62640.17	3.2390	3.2390	-0.1365	25.14	0.16	-0.050			
0.9789	62648.90	3.2380	3.2381	-0.1363	25.14	0.16	-0.050			
0.9790	62657.57	3.2370	3.2371	-0.1359	25.14	0.16	-0.050			
0.9792	62666.26	3.2360	3.2360	-0.1357	25.14	0.16	-0.050			
0.9793	62674.94	3.2350	3.2348	-0.1355	25.14	0.16	-0.050			
0.9794	62683.72	3.2340	3.2339	-0.1349	25.14	0.16	-0.050			
0.9796	62692.34	3.2330	3.2330	-0.1345	25.14	0.16	-0.050			
0.9797	62700.82	3.2320	3.2320	-0.1340	25.14	0.16	-0.050			
0.9798	62709.39	3.2310	3.2310	-0.1338	25.14	0.16	-0.050			
0.9800	62718.14	3.2300	3.2299	-0.1330	25.14	0.16	-0.050			
0.9801	62726.64	3.2290	3.2289	-0.1327	25.14	0.16	-0.050			
0.9802	62735.25	3.2280	3.2280	-0.1325	25.14	0.16	-0.050			
0.9804	62743.72	3.2270	3.2270	-0.1320	25.14	0.16	-0.050			
0.9805	62751.97	3.2260	3.2259	-0.1320	25.14	0.16	-0.050			
0.9806	62760.40	3.2250	3.2250	-0.1316	25.14	0.16	-0.050			
0.9808	62768.82	3.2240	3.2241	-0.1313	25.14	0.16	-0.050	0.483	0.782	
0.9809	62777.34	3.2230	3.2230	-0.1312	25.14	0.16	-0.050			
0.9810	62785.73	3.2220	3.2219	-0.1307	25.14	0.16	-0.050			
0.9812	62794.23	3.2210	3.2209	-0.1299	25.14	0.16	-0.050			
0.9813	62802.52	3.2200	3.2200	-0.1293	25.14	0.16	-0.050			
0.9814	62810.74	3.2190	3.2190	-0.1286	25.14	0.16	-0.050			
0.9815	62818.96	3.2180	3.2179	-0.1281	25.14	0.16	-0.050			
0.9817	62827.13	3.2170	3.2169	-0.1275	25.13	0.15	-0.050			
0.9818	62835.23	3.2160	3.2160	-0.1271	25.13	0.15	-0.050			
0.9819	62843.35	3.2150	3.2149	-0.1266	25.13	0.15	-0.050			
0.9821	62851.34	3.2140	3.2139	-0.1259	25.13	0.15	-0.050			
0.9822	62859.38	3.2130	3.2129	-0.1254	25.13	0.15	-0.050			
0.9823	62867.39	3.2120	3.2122	-0.1250	25.13	0.15	-0.050			
0.9824	62875.40	3.2110	3.2113	-0.1244	25.13	0.15	-0.050			
0.9826	62883.47	3.2100	3.2102	-0.1244	25.13	0.15	-0.050			
0.9827	62891.41	3.2090	3.2090	-0.1238	25.13	0.15	-0.050			
0.9828	62899.32	3.2080	3.2079	-0.1232	25.13	0.15	-0.050			
0.9829	62907.19	3.2070	3.2069	-0.1227	25.13	0.15	-0.050			
0.9830	62915.07	3.2060	3.2059	-0.1222	25.13	0.15	-0.050			
0.9832	62922.67	3.2050	3.2050	-0.1220	25.13	0.15	-0.050			
0.9833	62930.46	3.2040	3.2040	-0.1215	25.12	0.14	-0.050			
0.9834	62938.23	3.2030	3.2031	-0.1211	25.12	0.14	-0.050			
0.9835	62945.96	3.2020	3.2019	-0.1207	25.12	0.14	-0.050			
0.9836	62953.25	3.2010	3.2010	-0.1197	25.12	0.14	-0.050			
0.9838	62961.04	3.2000	3.2002	-0.1193	25.12	0.14	-0.050			
0.9839	62968.66	3.1990	3.1992	-0.1191	25.12	0.14	-0.050			
0.9840	62976.28	3.1980	3.1979	-0.1188	25.12	0.14	-0.050			
0.9841	62983.87	3.1970	3.1969	-0.1186	25.11	0.13	-0.050			
0.9842	62991.67	3.1960	3.1960	-0.1186	25.11	0.13	-0.050			
0.9844	62999.25	3.1950	3.1950	-0.1182	25.11	0.13	-0.050			
0.9845	63006.80	3.1940	3.1940	-0.1178	25.11	0.13	-0.050			
0.9846	63014.33	3.1930	3.1930	-0.1174	25.11	0.13	-0.050			
0.9847	63021.83	3.1920	3.1920	-0.1170	25.11	0.13	-0.050			
0.9848	63029.26	3.1910	3.1910	-0.1166	25.11	0.13	-0.050			
0.9849	63036.71	3.1900	3.1900	-0.1162	25.11	0.13	-0.050			
0.9851	63044.13	3.1890	3.1891	-0.1158	25.11	0.13	-0.050			
0.9852	63051.54	3.1880	3.1880	-0.1155	25.11	0.13	-0.050			
0.9853	63058.91	3.1870	3.1869	-0.1151	25.11	0.13	-0.050			
0.9854	63066.27	3.1860	3.1860	-0.1147	25.11	0.13	-0.050			
0.9855	63073.68	3.1850	3.1849	-0.1145	25.11	0.13	-0.050			
0.9856	63081.00	3.1840	3.1840	-0.1141	25.11	0.13	-0.050			
0.9858	63088.20	3.1830	3.1831	-0.1139	25.10	0.12	-0.050			
0.9859	63095.48	3.1820	3.1819	-0.1136	25.10	0.12	-0.050			
0.9860	63102.73	3.1810	3.1810	-0.1132	25.10	0.12	-0.050			
0.9861	63109.83	3.1800	3.1801	-0.1127	25.10	0.12	-0.050			
0.9862	63117.03	3.1790	3.1791	-0.1125	25.10	0.12	-0.050			
0.9863	63124.15	3.1780	3.1779	-0.1124	25.10	0.12	-0.050			
0.9864	63131.34	3.1770	3.1770	-0.1122	25.10	0.12	-0.050			
0.9865	63138.51	3.1760	3.1761	-0.1120	25.10	0.12	-0.050			
0.9867	63145.61	3.1750	3.1750	-0.1117	25.10	0.12	-0.050			
0.9868	63152.76	3.1740	3.1739	-0.1115	25.10	0.12	-0.050			
0.9869	63160.17	3.1730	3.1728	-0.1108	25.10	0.12	-0.050			
0.9870	63167.25	3.1720	3.1720	-0.1105	25.10	0.12	-0.050			
0.9871	63174.31	3.1710	3.1709	-0.1101	25.10	0.12	-0.050			
0.9872	63181.35	3.1700	3.1699	-0.1098	25.10	0.12	-0.050			
0.9873	63188.47	3.1690	3.1691	-0.1096	25.10	0.12	-0.050			
0.9874	63195.48	3.1680	3.1681	-0.1092	25.10	0.12	-0.050			
0.9875	63202.45	3.1670	3.1670	-0.1088	25.10	0.12	-0.050			
0.9876	63209.25	3.1660	3.1660	-0.1089	25.10	0.12	-0.050			
0.9878	63216.21	3.1650	3.1651	-0.1086	25.10	0.12	-0.050			
0.9879	63223.14	3.1640	3.1641	-0.1083	25.10	0.12	-0.050			
0.9880	63230.09	3.1630	3.1629	-0.1080	25.10	0.12	-0.050			
0.9881	63236.99	3.1620	3.1620	-0.1077	25.10	0.12	-0.050			
0.9882	63243.88	3.1610	3.1612	-0.1074	25.10	0.12	-0.050			
0.9883	63251.01	3.1600	3.1599	-0.1063	25.10	0.12	-0.050			
0.9884	63257.80	3.1590	3.1588	-0.1058	25.10	0.12	-0.050			
0.9885	63264.65	3.1580	3.1579	-0.1054	25.10	0.12	-0.050			
0.9886	63271.38	3.1570	3.1569	-0.1049	25.10	0.12	-0.050			
0.9887	63278.07	3.1560	3.1559	-0.1043	25.10	0.12	-0.050			
0.9888	63284.72	3.1550	3.1549	-0.1037	25.10	0.12	-0.050			
0.9889	63291.18	3.1540	3.1539	-0.1036	25.10	0.12	-0.050			
0.9890	63297.73	3.1530	3.1530	-0.1030	25.10	0.12	-0.050			
0.9891	63304.31	3.1520	3.1521	-0.1026	25.10	0.12	-0.050			
0.9892	63310.86	3.1510	3.1512	-0.1022	25.10	0.12	-0.050			
0.9893	63317.38	3.1500	3.1502	-0.1018	25.10	0.12	-0.050			
0.9894	63323.85	3.1490	3.1492	-0.1014	25.10	0.12	-0.050			
0.9895	63330.33	3.1480	3.1481	-0.1010	25.10	0.12	-0.050			
0.9896	63336.78	3.1470	3.1469	-0.1007	25.10	0.12	-0.050			
0.9897	63343.31	3.1460	3.1459	-0.1005	25.10	0.12	-0.050			
0.9898	63349.72	3.1450	3.1449	-0.1000	25.10	0.12	-0.050			
0.9899	63356.11	3.1440	3.1439	-0.0996	25.10	0.12	-0.050			
0.9900	63362.47	3.1430	3.1429	-0.0991	25.10	0.12	-0.050			
0.9901	63368.61	3.1420	3.1419	-0.0993	25.10	0.12	-0.050			
0.9902	63374.95	3.1410	3.1409	-0.0990	25.10	0.12	-0.050			
0.9903	63380.85	3.1400	3.1402	-0.0977	25.10	0.12	-0.050			
0.9904	63387.10	3.1390	3.1391	-0.0976	25.10	0.12	-0.050			
0.9905	63393.35	3.1380	3.1380	-0.0975	25.10	0.12	-0.050			
0.9906	63399.59	3.1370	3.1370	-0.0975	25.10	0.12	-0.050			
0.9907	63405.82	3.1360	3.1360	-0.0974	25.10	0.12	-0.050			
0.9908	63412.20	3.1350	3.1350	-0.0968	25.10	0.12	-0.050			
0.9909	63418.66	3.1340	3.1339	-0.0973	25.10	0.12	-0.050			
0.9910	63424.87	3.1330	3.1329	-0.0969	25.10	0.12	-0.050			
0.9911	63431.06	3.1320	3.1320	-0.0966	25.10	0.12	-0.050			
0.9912	63437.24	3.1310	3.1310	-0.0963	25.10	0.12	-0.050			
0.9913	63443.39	3.1300	3.1299	-0.0960	25.10	0.12	-0.050			
0.9914	63449.38	3.1290	3.1289	-0.0956	25.10	0.12	-0.050			
0.9915	63455.49	3.1280	3.1280	-0.0953	25.10	0.12	-0.050			
0.9916	63461.58	3.1270	3.1270	-0.0951	25.09	0.11	-0.050			
0.9917	63467.66	3.1260	3.1260	-0.0949	25.09	0.11	-0.050			
0.9918	63473.73	3.1250	3.1250	-0.0947	25.09	0.11	-0.050			
0.9919	63479.78	3.1240	3.1240	-0.0945	25.09	0.11	-0.050			
0.9920	63485.82	3.1230	3.1232	-0.0942	25.09	0.11	-0.050			
0.9921	63492.01	3.1220	3.1221	-0.0940	25.09	0.11	-0.050			
0.9922	63498.02	3.1210	3.1210	-0.0937	25.09	0.11	-0.050			
0.9923	63504.00	3.1200	3.1199	-0.0934	25.09	0.11	-0.050			
0.9923	63509.97	3.1190	3.1189	-0.0930	25.09	0.11	-0.050			
0.9924	63515.91	3.1180	3.1179	-0.0927	25.08	0.10	-0.050			
0.9925	63521.83	3.1170	3.1170	-0.0923	25.08	0.10	-0.050			
0.9926	63527.72	3.1160	3.1159	-0.0920	25.08	0.10	-0.050			
0.9927	63533.58	3.1150	3.1149	-0.0915	25.08	0.10	-0.050			
0.9928	63539.43	3.1140	3.1142	-0.0912	25.08	0.10	-0.050			
0.9929	63545.25	3.1130	3.1131	-0.0908	25.08	0.10	-0.050			
0.9930	63551.06	3.1120	3.1120	-0.0905	25.08	0.10	-0.050			
0.9931	63556.84	3.1110	3.1110	-0.0902	25.08	0.10	-0.050			
0.9932	63562.60	3.1100	3.1100	-0.0898	25.08	0.10	-0.050			
0.9933	63568.50	3.1090	3.1089	-0.0896	25.09	0.11	-0.050			
0.9933	63574.03	3.1080	3.1079	-0.0895	25.09	0.11	-0.050			
0.9934	63579.74	3.1070	3.1069	-0.0892	25.09	0.11	-0.050			
0.9935	63585.44	3.1060	3.1060	-0.0889	25.09	0.11	-0.050			
0.9936	63591.12	3.1050	3.1051	-0.0886	25.09	0.11	-0.050			
0.9937	63596.78	3.1040	3.1041	-0.0883	25.09	0.11	-0.050			
0.9938	63602.42	3.1030	3.1030	-0.0880	25.09	0.11	-0.050			
0.9939	63607.86	3.1020	3.1020	-0.0876	25.09	0.11	-0.050			
0.9940	63613.46	3.1010	3.1010	-0.0874	25.09	0.11	-0.050			
0.9940	63619.05	3.1000	3.1000	-0.0872	25.09	0.11	-0.050			
0.9941	63624.62	3.0990	3.0990	-0.0870	25.09	0.11	-0.050			
0.9942	63630.18	3.0980	3.0980	-0.0868	25.09	0.11	-0.050			
0.9943	63635.73	3.0970	3.0969	-0.0866	25.09	0.11	-0.050			
0.9944	63641.27	3.0960	3.0960	-0.0864	25.09	0.11	-0.050			
0.9945	63646.74	3.0950	3.0952	-0.0862	25.09	0.11	-0.050			
0.9946	63652.31	3.0940	3.0941	-0.0859	25.09	0.11	-0.050			
0.9947	63657.80	3.0930	3.0930	-0.0857	25.09	0.11	-0.050			
0.9947	63663.29	3.0920	3.0920	-0.0855	25.09	0.11	-0.050			
0.9948	63668.75	3.0910	3.0910	-0.0853	25.09	0.11	-0.050			
0.9949	63674.21	3.0900	3.0899	-0.0851	25.09	0.11	-0.050			
0.9950	63679.65	3.0890	3.0889	-0.0849	25.09	0.11	-0.050			
0.9951	63685.18	3.0880	3.0879	-0.0848	25.09	0.11	-0.050			
0.9952	63690.60	3.0870	3.0870	-0.0846	25.09	0.11	-0.050			
0.9953	63696.04	3.0860	3.0861	-0.0842	25.09	0.11	-0.050			
0.9953	63701.42	3.0850	3.0851	-0.0840	25.09	0.11	-0.050			
0.9954	63706.79	3.0840	3.0840	-0.0837	25.09	0.11	-0.050			
0.9955	63712.13	3.0830	3.0830	-0.0834	25.09	0.11	-0.050			
0.9956	63717.49	3.0820	3.0819	-0.0832	25.09	0.11	-0.050			
0.9957	63722.80	3.0810	3.0809	-0.0829	25.09	0.11	-0.050			
0.9958	63728.15	3.0800	3.0799	-0.0825	25.09	0.11	-0.050			
0.9958	63733.41	3.0790	3.0789	-0.0822	25.09	0.11	-0.050			
0.9959	63738.66	3.0780	3.0779	-0.0818	25.09	0.11	-0.050			
0.9960	63743.89	3.0770	3.0770	-0.0815	25.09	0.11	-0.050			
0.9961	63749.09	3.0760	3.0760	-0.0812	25.09	0.11	-0.050			
0.9962	63754.28	3.0750	3.0752	-0.0809	25.09	0.11	-0.050			
0.9962	63759.51	3.0740	3.0741	-0.0806	25.09	0.11	-0.050			
0.9963	63764.53	3.0730	3.0731	-0.0804	25.09	0.11	-0.050			
0.9964	63769.67	3.0720	3.0721	-0.0801	25.09	0.11	-0.050			
0.9965	63774.79	3.0710	3.0711	-0.0798	25.09	0.11	-0.050			
0.9966	63779.89	3.0700	3.0699	-0.0795	25.09	0.11	-0.050			
0.9966	63784.97	3.0690	3.0689	-0.0793	25.09	0.11	-0.050			
0.9967	63790.03	3.0680	3.0679	-0.0790	25.09	0.11	-0.050			
0.9968	63795.08	3.0670	3.0669	-0.0787	25.09	0.11	-0.050			
0.9969	63800.01	3.0660	3.0659	-0.0783	25.09	0.11	-0.050			
0.9970	63805.02	3.0650	3.0651	-0.0781	25.09	0.11	-0.050			
0.9970	63810.01	3.0640	3.0640	-0.0779	25.09	0.11	-0.050			
0.9971	63814.99	3.0630	3.0629	-0.0776	25.09	0.11	-0.050			
0.9972	63819.95	3.0620	3.0619	-0.0774	25.09	0.11	-0.050			
0.9973	63824.89	3.0610	3.0609	-0.0772	25.09	0.11	-0.050			
0.9973	63829.77	3.0600	3.0599	-0.0769	25.09	0.11	-0.050			
0.9974	63834.64	3.0590	3.0589	-0.0767	25.09	0.11	-0.050			
0.9975	63839.55	3.0580	3.0580	-0.0766	25.09	0.11	-0.050			
0.9976	63844.44	3.0570	3.0570	-0.0764	25.09	0.11	-0.050			
0.9976	63849.33	3.0560	3.0560	-0.0762	25.09	0.11	-0.050			
0.9977	63854.20	3.0550	3.0550	-0.0760	25.09	0.11	-0.050			
0.9978	63859.06	3.0540	3.0542	-0.0759	25.09	0.11	-0.050			
0.9979	63863.92	3.0530	3.0531	-0.0757	25.09	0.11	-0.050			
0.9979	63868.76	3.0520	3.0519	-0.0755	25.09	0.11	-0.050			
0.9980	63873.62	3.0510	3.0510	-0.0753	25.09	0.11	-0.050			
0.9981	63878.43	3.0500	3.0500	-0.0750	25.09	0.11	-0.050			
0.9982	63883.23	3.0490	3.0490	-0.0748	25.09	0.11	-0.050			
0.9983	63888.01	3.0480	3.0480	-0.0746	25.09	0.11	-0.050			
0.9983	63892.78	3.0470	3.0470	-0.0744	25.09	0.11	-0.050			
0.9984	63897.51	3.0460	3.0460	-0.0742	25.09	0.11	-0.050			
0.9985	63902.25	3.0450	3.0450	-0.0740	25.09	0.11	-0.050			
0.9985	63906.98	3.0440	3.0440	-0.0738	25.09	0.11	-0.050			
0.9986	63911.73	3.0430	3.0431	-0.0735	25.09	0.11	-0.050			
0.9987	63916.43	3.0420	3.0421	-0.0733	25.09	0.11	-0.050			
0.9988	63921.12	3.0410	3.0410	-0.0731	25.09	0.11	-0.050			
0.9988	63925.79	3.0400	3.0400	-0.0729	25.09	0.11	-0.050			
0.9989	63930.52	3.0390	3.0390	-0.0728	25.09	0.11	-0.050			
0.9990	63935.17	3.0380	3.0379	-0.0725	25.09	0.11	-0.050			
0.9991	63939.81	3.0370	3.0370	-0.0723	25.10	0.12	-0.050			
0.9991	63944.32	3.0360	3.0360	-0.0722	25.10	0.12	-0.050			
0.9992	63948.94	3.0350	3.0350	-0.0720	25.10	0.12	-0.050			
0.9993	63953.54	3.0340	3.0340	-0.0718	25.10	0.12	-0.050			
0.9993	63958.13	3.0330	3.0330	-0.0716	25.10	0.12	-0.050			
0.9994	63962.71	3.0320	3.0320	-0.0714	25.10	0.12	-0.050			
0.9995	63967.17	3.0310	3.0310	-0.0711	25.10	0.12	-0.050			
0.9996	63971.71	3.0300	3.0301	-0.0710	25.10	0.12	-0.050			
0.9996	63976.25	3.0290	3.0291	-0.0708	25.10	0.12	-0.050			
0.9997	63980.70	3.0280	3.0281	-0.0709	25.10	0.12	-0.050			
0.9998	63985.23	3.0270	3.0270	-0.0708	25.10	0.12	-0.050			
0.9998	63989.76	3.0260	3.0259	-0.0707	25.10	0.12	-0.050			
0.9999	63994.28	3.0250	3.0249	-0.0706	25.10	0.12	-0.050			
1.0000	63998.79	3.0240	3.0239	-0.0705	25.10	0.12	-0.050			
1.0000	64003.19	3.0230	3.0230	-0.0703	25.10	0.12	-0.050			
1.0001	64008.02	3.0220	3.0220	-0.0699	25.10	0.12	-0.050			
1.0002	64012.48	3.0210	3.0210	-0.0697	25.10	0.12	-0.050			
1.0003	64016.93	3.0200	3.0201	-0.0694	25.10	0.12	-0.050			
1.0003	64021.37	3.0190	3.0191	-0.0692	25.10	0.12	-0.050			
1.0004	64025.80	3.0180	3.0179	-0.0690	25.10	0.12	-0.050			
1.0005	64030.21	3.0170	3.0169	-0.0688	25.10	0.12	-0.050			
1.0005	64034.78	3.0160	3.0158	-0.0689	25.10	0.12	-0.050			
1.0006	64039.18	3.0150	3.0148	-0.0686	25.10	0.12	-0.050			
1.0007	64043.56	3.0140	3.0139	-0.0683	25.10	0.12	-0.050			
1.0007	64047.92	3.0130	3.0129	-0.0680	25.11	0.13	-0.050	0.423	0.855	
1.0008	64052.26	3.0120	3.0120	-0.0676	25.11	0.13	-0.050			
1.0009	64056.58	3.0110	3.0110	-0.0673	25.11	0.13	-0.050			
1.0010	64060.88	3.0100	3.0098	-0.0670	25.11	0.13	-0.050			
1.0010	64065.16	3.0090	3.0088	-0.0667	25.11	0.13	-0.050			
1.0011	64069.75	3.0080	3.0078	-0.0658	25.11	0.13	-0.050			
1.0012	64073.94	3.0070	3.0069	-0.0652	25.11	0.13	-0.050			
1.0012	64078.09	3.0060	3.0060	-0.0645	25.11	0.13	-0.050			
1.0013	64082.20	3.0050	3.0050	-0.0639	25.11	0.13	-0.050			
1.0013	64086.27	3.0040	3.0040	-0.0633	25.11	0.13	-0.050			
