Ah_balance (normalized)	Ah_balance (mAh)	Voltage - fit (V)	Voltage -  interpolate (V)	dQ/dV (1/V)	Temperature (°C)	Temperature - diff (°C)	Current (C)	R_DC 0ms (mOhm)	R_DC 50ms (mOhm)	R_DC 50 ms PEC (mOhm)
0.0000	2.96	4.1830	4.1830	-0.2472	24.23	0.00	-0.050			
0.0003	19.79	4.1820	4.1817	-0.2877	24.23	0.00	-0.050			
0.0006	39.88	4.1810	4.1806	-0.3348	24.23	0.00	-0.050			
0.0010	62.11	4.1800	4.1799	-0.3600	24.23	0.00	-0.050			
0.0014	87.15	4.1790	4.1787	-0.3895	24.23	0.00	-0.050			
0.0018	113.14	4.1780	4.1777	-0.4122	24.22	-0.01	-0.050			
0.0022	141.26	4.1770	4.1769	-0.4343	24.21	-0.02	-0.050			
0.0027	170.17	4.1760	4.1758	-0.4537	24.21	-0.02	-0.050			
0.0031	200.50	4.1750	4.1750	-0.4717	24.21	-0.02	-0.050			
0.0036	231.89	4.1740	4.1742	-0.4883	24.20	-0.03	-0.050			
0.0041	264.65	4.1730	4.1730	-0.5029	24.19	-0.04	-0.050			
0.0047	298.31	4.1720	4.1720	-0.5155	24.17	-0.06	-0.050			
0.0052	332.38	4.1710	4.1711	-0.5273	24.17	-0.06	-0.050			
0.0058	370.41	4.1700	4.1698	-0.5451	24.16	-0.07	-0.050			
0.0063	405.91	4.1690	4.1689	-0.5528	24.14	-0.09	-0.050			
0.0069	443.44	4.1680	4.1680	-0.5612	24.14	-0.09	-0.050			
0.0075	479.96	4.1670	4.1670	-0.5683	24.14	-0.09	-0.050			
0.0081	517.19	4.1660	4.1661	-0.5708	24.13	-0.10	-0.050			
0.0087	554.56	4.1650	4.1650	-0.5752	24.12	-0.11	-0.050			
0.0093	592.11	4.1640	4.1641	-0.5783	24.11	-0.12	-0.050			
0.0098	630.00	4.1630	4.1631	-0.5823	24.10	-0.13	-0.050			
0.0104	667.50	4.1620	4.1621	-0.5849	24.09	-0.14	-0.050			
0.0110	705.23	4.1610	4.1610	-0.5880	24.09	-0.14	-0.050			
0.0116	742.57	4.1600	4.1601	-0.5906	24.09	-0.14	-0.050			
0.0122	780.75	4.1590	4.1590	-0.5943	24.09	-0.14	-0.050			
0.0128	818.33	4.1580	4.1581	-0.5965	24.09	-0.14	-0.050			
0.0134	855.66	4.1570	4.1569	-0.5997	24.09	-0.14	-0.050			
0.0140	893.64	4.1560	4.1559	-0.6036	24.09	-0.14	-0.050			
0.0146	931.51	4.1550	4.1550	-0.6072	24.09	-0.14	-0.050			
0.0152	969.73	4.1540	4.1540	-0.6127	24.10	-0.13	-0.050			
0.0158	1008.45	4.1530	4.1530	-0.6187	24.11	-0.12	-0.050			
0.0164	1047.89	4.1520	4.1519	-0.6253	24.12	-0.11	-0.050			
0.0170	1087.90	4.1510	4.1509	-0.6314	24.13	-0.10	-0.050			
0.0176	1128.23	4.1500	4.1500	-0.6380	24.13	-0.10	-0.050			
0.0183	1169.52	4.1490	4.1490	-0.6451	24.14	-0.09	-0.050			
0.0189	1211.27	4.1480	4.1479	-0.6523	24.16	-0.07	-0.050			
0.0196	1253.71	4.1470	4.1469	-0.6582	24.17	-0.06	-0.050			
0.0203	1297.15	4.1460	4.1457	-0.6643	24.19	-0.04	-0.050	0.591	0.819	
0.0209	1340.27	4.1450	4.1449	-0.6698	24.21	-0.02	-0.050			
0.0216	1383.25	4.1440	4.1440	-0.6753	24.22	-0.01	-0.050			
0.0223	1427.18	4.1430	4.1432	-0.6805	24.23	-0.00	-0.050			
0.0230	1471.38	4.1420	4.1420	-0.6841	24.25	0.02	-0.050			
0.0237	1515.72	4.1410	4.1411	-0.6877	24.26	0.03	-0.050			
0.0244	1560.13	4.1400	4.1401	-0.6913	24.27	0.04	-0.050			
0.0251	1604.90	4.1390	4.1389	-0.6937	24.29	0.06	-0.050			
0.0258	1650.22	4.1380	4.1380	-0.6948	24.30	0.07	-0.050			
0.0265	1695.52	4.1370	4.1369	-0.6960	24.32	0.09	-0.050			
0.0272	1740.65	4.1360	4.1360	-0.6966	24.35	0.12	-0.050			
0.0279	1785.27	4.1350	4.1349	-0.6955	24.36	0.13	-0.050			
0.0286	1829.81	4.1340	4.1339	-0.6946	24.37	0.14	-0.050			
0.0293	1874.39	4.1330	4.1331	-0.6932	24.38	0.15	-0.050			
0.0300	1918.95	4.1320	4.1320	-0.6927	24.39	0.16	-0.050			
0.0307	1963.37	4.1310	4.1311	-0.6924	24.39	0.16	-0.050			
0.0314	2007.58	4.1300	4.1301	-0.6923	24.39	0.16	-0.050			
0.0321	2051.67	4.1290	4.1290	-0.6915	24.39	0.16	-0.050			
0.0327	2095.53	4.1280	4.1279	-0.6925	24.38	0.15	-0.050			
0.0334	2139.72	4.1270	4.1271	-0.6913	24.37	0.14	-0.050			
0.0341	2184.05	4.1260	4.1259	-0.6906	24.37	0.14	-0.050			
0.0348	2228.12	4.1250	4.1250	-0.6902	24.36	0.13	-0.050			
0.0355	2271.86	4.1240	4.1241	-0.6885	24.34	0.11	-0.050			
0.0362	2315.72	4.1230	4.1229	-0.6880	24.33	0.10	-0.050			
0.0369	2359.60	4.1220	4.1220	-0.6898	24.32	0.09	-0.050			
0.0376	2403.49	4.1210	4.1210	-0.6912	24.32	0.09	-0.050			
0.0382	2446.72	4.1200	4.1201	-0.6949	24.31	0.08	-0.050			
0.0389	2490.72	4.1190	4.1190	-0.6984	24.29	0.06	-0.050			
0.0396	2535.41	4.1180	4.1181	-0.7014	24.29	0.06	-0.050			
0.0403	2580.51	4.1170	4.1169	-0.7040	24.29	0.06	-0.050	0.386	0.675	
0.0410	2626.18	4.1160	4.1160	-0.7056	24.29	0.06	-0.050			
0.0417	2671.45	4.1150	4.1150	-0.7076	24.28	0.05	-0.050			
0.0424	2716.65	4.1140	4.1138	-0.7106	24.27	0.04	-0.050			
0.0432	2762.50	4.1130	4.1129	-0.7124	24.25	0.02	-0.050			
0.0439	2808.39	4.1120	4.1119	-0.7143	24.24	0.01	-0.050			
0.0446	2854.58	4.1110	4.1108	-0.7144	24.22	-0.01	-0.050			
0.0453	2900.84	4.1100	4.1101	-0.7141	24.21	-0.02	-0.050			
0.0460	2947.01	4.1090	4.1092	-0.7141	24.20	-0.03	-0.050			
0.0468	2993.86	4.1080	4.1081	-0.7143	24.18	-0.05	-0.050			
0.0475	3039.78	4.1070	4.1070	-0.7143	24.17	-0.06	-0.050			
0.0482	3086.70	4.1060	4.1058	-0.7139	24.15	-0.08	-0.050			
0.0489	3131.60	4.1050	4.1049	-0.7158	24.14	-0.09	-0.050			
0.0496	3177.14	4.1040	4.1042	-0.7149	24.14	-0.09	-0.050			
0.0503	3222.11	4.1030	4.1031	-0.7162	24.13	-0.10	-0.050			
0.0510	3266.28	4.1020	4.1019	-0.7193	24.12	-0.11	-0.050			
0.0517	3311.16	4.1010	4.1011	-0.7211	24.11	-0.12	-0.050			
0.0524	3355.78	4.1000	4.1001	-0.7224	24.11	-0.12	-0.050			
0.0532	3401.81	4.0990	4.0991	-0.7257	24.09	-0.14	-0.050			
0.0539	3448.29	4.0980	4.0977	-0.7301	24.09	-0.14	-0.050			
0.0546	3495.86	4.0970	4.0970	-0.7328	24.09	-0.14	-0.050			
0.0554	3543.66	4.0960	4.0958	-0.7339	24.10	-0.13	-0.050			
0.0561	3590.93	4.0950	4.0951	-0.7365	24.12	-0.11	-0.050			
0.0568	3637.95	4.0940	4.0940	-0.7382	24.12	-0.11	-0.050			
0.0576	3686.09	4.0930	4.0930	-0.7415	24.14	-0.09	-0.050			
0.0584	3734.44	4.0920	4.0920	-0.7445	24.16	-0.07	-0.050			
0.0591	3783.28	4.0910	4.0912	-0.7447	24.17	-0.06	-0.050			
0.0599	3832.09	4.0900	4.0901	-0.7457	24.19	-0.04	-0.050	0.376	0.631	
0.0606	3880.66	4.0890	4.0891	-0.7443	24.21	-0.02	-0.050			
0.0614	3928.88	4.0880	4.0880	-0.7418	24.22	-0.01	-0.050			
0.0621	3977.15	4.0870	4.0868	-0.7378	24.23	-0.00	-0.050			
0.0629	4024.22	4.0860	4.0860	-0.7335	24.25	0.02	-0.050			
0.0636	4070.83	4.0850	4.0849	-0.7289	24.27	0.04	-0.050			
0.0643	4117.12	4.0840	4.0840	-0.7259	24.27	0.04	-0.050			
0.0650	4162.72	4.0830	4.0830	-0.7246	24.28	0.05	-0.050			
0.0657	4207.60	4.0820	4.0821	-0.7221	24.29	0.06	-0.050			
0.0665	4252.85	4.0810	4.0811	-0.7213	24.31	0.08	-0.050			
0.0672	4298.83	4.0800	4.0800	-0.7216	24.31	0.08	-0.050			
0.0679	4344.85	4.0790	4.0790	-0.7220	24.31	0.08	-0.050			
0.0686	4391.16	4.0780	4.0780	-0.7222	24.31	0.08	-0.050			
0.0693	4437.42	4.0770	4.0768	-0.7217	24.30	0.07	-0.050			
0.0701	4483.33	4.0760	4.0759	-0.7208	24.29	0.06	-0.050			
0.0708	4529.27	4.0750	4.0749	-0.7208	24.28	0.05	-0.050			
0.0715	4575.01	4.0740	4.0738	-0.7212	24.26	0.03	-0.050			
0.0722	4621.15	4.0730	4.0731	-0.7220	24.25	0.02	-0.050			
0.0729	4667.79	4.0720	4.0721	-0.7225	24.23	0.00	-0.050			
0.0737	4714.78	4.0710	4.0712	-0.7238	24.22	-0.01	-0.050			
0.0744	4761.28	4.0700	4.0702	-0.7244	24.20	-0.03	-0.050			
0.0751	4808.05	4.0690	4.0690	-0.7256	24.18	-0.05	-0.050			
0.0759	4854.84	4.0680	4.0680	-0.7263	24.16	-0.07	-0.050			
0.0766	4901.36	4.0670	4.0670	-0.7267	24.14	-0.09	-0.050			
0.0773	4947.68	4.0660	4.0660	-0.7274	24.13	-0.10	-0.050			
0.0780	4993.39	4.0650	4.0651	-0.7276	24.11	-0.12	-0.050			
0.0787	5039.61	4.0640	4.0642	-0.7278	24.11	-0.12	-0.050			
0.0795	5084.99	4.0630	4.0630	-0.7287	24.10	-0.13	-0.050			
0.0802	5131.05	4.0620	4.0621	-0.7321	24.08	-0.15	-0.050	0.315	0.623	
0.0809	5177.11	4.0610	4.0608	-0.7351	24.06	-0.17	-0.050			
0.0816	5223.87	4.0600	4.0600	-0.7407	24.06	-0.17	-0.050			
0.0824	5271.15	4.0590	4.0591	-0.7464	24.05	-0.18	-0.050			
0.0831	5318.73	4.0580	4.0581	-0.7506	24.03	-0.20	-0.050			
0.0839	5367.03	4.0570	4.0570	-0.7558	24.03	-0.20	-0.050			
0.0846	5415.80	4.0560	4.0558	-0.7600	24.02	-0.21	-0.050			
0.0854	5464.88	4.0550	4.0550	-0.7636	24.02	-0.21	-0.050			
0.0862	5514.17	4.0540	4.0539	-0.7675	24.02	-0.21	-0.050			
0.0869	5564.10	4.0530	4.0529	-0.7702	24.02	-0.21	-0.050			
0.0877	5614.68	4.0520	4.0518	-0.7739	24.03	-0.20	-0.050			
0.0885	5665.15	4.0510	4.0510	-0.7759	24.03	-0.20	-0.050			
0.0893	5716.07	4.0500	4.0501	-0.7744	24.04	-0.19	-0.050			
0.0901	5766.70	4.0490	4.0490	-0.7710	24.06	-0.17	-0.050			
0.0909	5816.74	4.0480	4.0481	-0.7692	24.08	-0.15	-0.050			
0.0917	5867.20	4.0470	4.0469	-0.7680	24.10	-0.13	-0.050			
0.0924	5916.23	4.0460	4.0461	-0.7667	24.12	-0.11	-0.050			
0.0932	5964.47	4.0450	4.0450	-0.7646	24.14	-0.09	-0.050			
0.0940	6013.08	4.0440	4.0439	-0.7624	24.14	-0.09	-0.050			
0.0947	6060.90	4.0430	4.0430	-0.7607	24.17	-0.06	-0.050			
0.0955	6108.93	4.0420	4.0421	-0.7585	24.19	-0.04	-0.050			
0.0962	6156.98	4.0410	4.0411	-0.7552	24.20	-0.03	-0.050			
0.0970	6204.99	4.0400	4.0399	-0.7536	24.22	-0.01	-0.050			
0.0977	6252.44	4.0390	4.0389	-0.7525	24.23	0.00	-0.050			
0.0984	6299.96	4.0380	4.0379	-0.7530	24.25	0.02	-0.050			
0.0992	6347.86	4.0370	4.0369	-0.7539	24.25	0.02	-0.050			
0.0999	6395.37	4.0360	4.0360	-0.7549	24.26	0.03	-0.050	0.300	0.642	
0.1007	6443.97	4.0350	4.0350	-0.7569	24.27	0.04	-0.050			
0.1014	6492.56	4.0340	4.0340	-0.7586	24.29	0.06	-0.050			
0.1022	6541.57	4.0330	4.0331	-0.7592	24.29	0.06	-0.050			
0.1030	6590.76	4.0320	4.0320	-0.7608	24.29	0.06	-0.050			
0.1037	6639.91	4.0310	4.0311	-0.7613	24.29	0.06	-0.050			
0.1045	6689.56	4.0300	4.0298	-0.7607	24.29	0.06	-0.050			
0.1053	6738.96	4.0290	4.0290	-0.7614	24.28	0.05	-0.050			
0.1061	6787.64	4.0280	4.0281	-0.7591	24.26	0.03	-0.050			
0.1068	6836.39	4.0270	4.0270	-0.7570	24.25	0.02	-0.050			
0.1076	6884.50	4.0260	4.0262	-0.7557	24.24	0.01	-0.050			
0.1083	6932.33	4.0250	4.0251	-0.7556	24.23	-0.00	-0.050			
0.1090	6979.20	4.0240	4.0240	-0.7604	24.21	-0.02	-0.050			
0.1098	7027.09	4.0230	4.0231	-0.7629	24.19	-0.04	-0.050			
0.1106	7075.44	4.0220	4.0221	-0.7673	24.17	-0.06	-0.050			
0.1113	7123.66	4.0210	4.0210	-0.7720	24.16	-0.07	-0.050			
0.1121	7172.15	4.0200	4.0200	-0.7783	24.15	-0.08	-0.050			
0.1128	7221.39	4.0190	4.0191	-0.7825	24.12	-0.11	-0.050			
0.1136	7270.44	4.0180	4.0180	-0.7860	24.11	-0.12	-0.050			
0.1144	7321.05	4.0170	4.0168	-0.7918	24.10	-0.13	-0.050			
0.1152	7372.57	4.0160	4.0158	-0.7962	24.08	-0.15	-0.050			
0.1160	7424.75	4.0150	4.0148	-0.7998	24.07	-0.16	-0.050			
0.1168	7477.57	4.0140	4.0141	-0.8029	24.06	-0.17	-0.050			
0.1177	7530.77	4.0130	4.0129	-0.8059	24.05	-0.18	-0.050			
0.1185	7583.72	4.0120	4.0120	-0.8065	24.05	-0.18	-0.050			
0.1193	7636.29	4.0110	4.0111	-0.8084	24.05	-0.18	-0.050			
0.1201	7688.94	4.0100	4.0100	-0.8092	24.06	-0.17	-0.050	0.484	0.777	
0.1210	7741.62	4.0090	4.0091	-0.8087	24.07	-0.16	-0.050			
0.1218	7793.21	4.0080	4.0081	-0.8081	24.08	-0.15	-0.050			
0.1226	7845.77	4.0070	4.0071	-0.8080	24.09	-0.14	-0.050			
0.1234	7896.94	4.0060	4.0061	-0.8051	24.08	-0.15	-0.050			
0.1242	7947.21	4.0050	4.0051	-0.8030	24.09	-0.14	-0.050			
0.1249	7996.77	4.0040	4.0039	-0.7998	24.09	-0.14	-0.050			
0.1257	8047.28	4.0030	4.0028	-0.7998	24.07	-0.16	-0.050			
0.1265	8098.07	4.0020	4.0020	-0.8008	24.06	-0.17	-0.050			
0.1273	8148.40	4.0010	4.0010	-0.8005	24.08	-0.15	-0.050			
0.1281	8199.10	4.0000	4.0001	-0.7998	24.09	-0.14	-0.050			
0.1289	8250.34	3.9990	3.9990	-0.8010	24.11	-0.12	-0.050			
0.1297	8302.64	3.9980	3.9981	-0.8015	24.13	-0.10	-0.050			
0.1305	8354.52	3.9970	3.9970	-0.8017	24.14	-0.09	-0.050			
0.1314	8407.01	3.9960	3.9961	-0.8023	24.15	-0.08	-0.050			
0.1322	8459.38	3.9950	3.9949	-0.8032	24.18	-0.05	-0.050			
0.1330	8511.47	3.9940	3.9940	-0.8038	24.19	-0.04	-0.050			
0.1338	8563.23	3.9930	3.9931	-0.8020	24.21	-0.02	-0.050			
0.1346	8614.59	3.9920	3.9921	-0.7993	24.23	-0.00	-0.050			
0.1354	8665.50	3.9910	3.9911	-0.7971	24.24	0.01	-0.050			
0.1362	8715.82	3.9900	3.9899	-0.7968	24.26	0.03	-0.050			
0.1370	8766.48	3.9890	3.9890	-0.7962	24.27	0.04	-0.050			
0.1378	8816.78	3.9880	3.9880	-0.7952	24.28	0.05	-0.050			
0.1385	8866.83	3.9870	3.9869	-0.7967	24.30	0.07	-0.050			
0.1393	8916.99	3.9860	3.9859	-0.7986	24.31	0.08	-0.050			
0.1401	8966.60	3.9850	3.9849	-0.8004	24.32	0.09	-0.050	0.367	0.654	
0.1409	9016.89	3.9840	3.9840	-0.8033	24.32	0.09	-0.050			
0.1417	9067.92	3.9830	3.9831	-0.8072	24.32	0.09	-0.050			
0.1425	9119.38	3.9820	3.9820	-0.8106	24.32	0.09	-0.050			
0.1433	9171.69	3.9810	3.9811	-0.8147	24.31	0.08	-0.050			
0.1441	9224.60	3.9800	3.9800	-0.8176	24.30	0.07	-0.050			
0.1450	9277.94	3.9790	3.9790	-0.8202	24.28	0.05	-0.050			
0.1458	9332.02	3.9780	3.9779	-0.8216	24.27	0.04	-0.050			
0.1466	9385.44	3.9770	3.9770	-0.8239	24.25	0.02	-0.050			
0.1475	9438.84	3.9760	3.9760	-0.8245	24.23	-0.00	-0.050			
0.1483	9492.04	3.9750	3.9750	-0.8254	24.21	-0.02	-0.050			
0.1492	9545.61	3.9740	3.9741	-0.8262	24.20	-0.03	-0.050			
0.1500	9598.52	3.9730	3.9732	-0.8257	24.18	-0.05	-0.050			
0.1508	9652.06	3.9720	3.9721	-0.8240	24.17	-0.06	-0.050			
0.1516	9705.07	3.9710	3.9711	-0.8212	24.16	-0.07	-0.050			
0.1525	9757.81	3.9700	3.9700	-0.8176	24.14	-0.09	-0.050			
0.1533	9809.88	3.9690	3.9689	-0.8147	24.14	-0.09	-0.050			
0.1541	9860.98	3.9680	3.9679	-0.8147	24.13	-0.10	-0.050			
0.1549	9912.03	3.9670	3.9670	-0.8128	24.13	-0.10	-0.050			
0.1557	9963.08	3.9660	3.9660	-0.8126	24.13	-0.10	-0.050			
0.1565	10013.99	3.9650	3.9649	-0.8122	24.11	-0.12	-0.050			
0.1573	10065.99	3.9640	3.9641	-0.8125	24.10	-0.13	-0.050			
0.1581	10118.85	3.9630	3.9631	-0.8098	24.09	-0.14	-0.050			
0.1589	10171.74	3.9620	3.9618	-0.8079	24.07	-0.16	-0.050			
0.1598	10224.00	3.9610	3.9610	-0.8069	24.06	-0.17	-0.050	0.399	0.686	
0.1606	10276.12	3.9600	3.9598	-0.8059	24.05	-0.18	-0.050			
0.1614	10327.93	3.9590	3.9589	-0.8048	24.05	-0.18	-0.050			
0.1622	10379.35	3.9580	3.9580	-0.8030	24.05	-0.18	-0.050			
0.1630	10430.05	3.9570	3.9572	-0.8038	24.05	-0.18	-0.050			
0.1638	10481.01	3.9560	3.9561	-0.8025	24.06	-0.17	-0.050			
0.1646	10531.91	3.9550	3.9552	-0.8020	24.06	-0.17	-0.050			
0.1654	10583.24	3.9540	3.9542	-0.8010	24.08	-0.15	-0.050			
0.1662	10634.80	3.9530	3.9531	-0.8004	24.09	-0.14	-0.050			
0.1670	10686.01	3.9520	3.9517	-0.7996	24.10	-0.13	-0.050			
0.1678	10737.18	3.9510	3.9509	-0.7993	24.11	-0.12	-0.050			
0.1686	10787.96	3.9500	3.9498	-0.7998	24.11	-0.12	-0.050			
0.1693	10838.21	3.9490	3.9490	-0.7998	24.12	-0.11	-0.050			
0.1701	10887.21	3.9480	3.9480	-0.8001	24.13	-0.10	-0.050			
0.1709	10937.71	3.9470	3.9471	-0.8032	24.13	-0.10	-0.050			
0.1717	10988.83	3.9460	3.9461	-0.8084	24.13	-0.10	-0.050			
0.1725	11040.91	3.9450	3.9452	-0.8128	24.13	-0.10	-0.050			
0.1733	11093.58	3.9440	3.9438	-0.8177	24.14	-0.09	-0.050			
0.1742	11146.61	3.9430	3.9430	-0.8237	24.15	-0.08	-0.050			
0.1750	11200.20	3.9420	3.9420	-0.8282	24.14	-0.09	-0.050			
0.1758	11252.91	3.9410	3.9409	-0.8307	24.15	-0.08	-0.050			
0.1767	11305.69	3.9400	3.9399	-0.8325	24.16	-0.07	-0.050			
0.1775	11359.04	3.9390	3.9391	-0.8351	24.18	-0.05	-0.050			
0.1783	11413.25	3.9380	3.9378	-0.8367	24.20	-0.03	-0.050			
0.1792	11467.41	3.9370	3.9371	-0.8378	24.20	-0.03	-0.050			
0.1800	11522.00	3.9360	3.9361	-0.8375	24.20	-0.03	-0.050	0.477	0.621	
0.1809	11576.83	3.9350	3.9350	-0.8381	24.21	-0.02	-0.050			
0.1817	11631.14	3.9340	3.9341	-0.8383	24.21	-0.02	-0.050			
0.1826	11685.90	3.9330	3.9331	-0.8403	24.20	-0.03	-0.050			
0.1834	11740.09	3.9320	3.9320	-0.8380	24.19	-0.04	-0.050			
0.1843	11793.77	3.9310	3.9311	-0.8352	24.19	-0.04	-0.050			
0.1851	11847.14	3.9300	3.9301	-0.8321	24.18	-0.05	-0.050			
0.1859	11900.00	3.9290	3.9290	-0.8288	24.16	-0.07	-0.050			
0.1868	11952.68	3.9280	3.9281	-0.8242	24.14	-0.09	-0.050			
0.1876	12005.13	3.9270	3.9270	-0.8211	24.14	-0.09	-0.050			
0.1884	12057.66	3.9260	3.9258	-0.8188	24.14	-0.09	-0.050			
0.1892	12109.78	3.9250	3.9250	-0.8179	24.13	-0.10	-0.050			
0.1900	12161.68	3.9240	3.9241	-0.8152	24.13	-0.10	-0.050			
0.1908	12213.17	3.9230	3.9229	-0.8147	24.13	-0.10	-0.050			
0.1916	12264.91	3.9220	3.9221	-0.8118	24.13	-0.10	-0.050			
0.1925	12317.05	3.9210	3.9209	-0.8102	24.11	-0.12	-0.050			
0.1933	12368.96	3.9200	3.9200	-0.8073	24.11	-0.12	-0.050			
0.1941	12421.00	3.9190	3.9190	-0.8063	24.09	-0.14	-0.050			
0.1949	12472.65	3.9180	3.9180	-0.8057	24.09	-0.14	-0.050			
0.1957	12524.42	3.9170	3.9169	-0.8053	24.09	-0.14	-0.050			
0.1965	12575.81	3.9160	3.9160	-0.8035	24.07	-0.16	-0.050			
0.1973	12626.62	3.9150	3.9149	-0.8013	24.06	-0.17	-0.050			
0.1981	12677.59	3.9140	3.9140	-0.7996	24.05	-0.18	-0.050			
0.1989	12728.64	3.9130	3.9131	-0.7983	24.05	-0.18	-0.050			
0.1997	12779.74	3.9120	3.9121	-0.7984	24.05	-0.18	-0.050			
0.2005	12830.76	3.9110	3.9110	-0.7987	24.03	-0.20	-0.050	0.168	0.546	
0.2013	12881.64	3.9100	3.9099	-0.7980	24.04	-0.19	-0.050			
0.2021	12932.21	3.9090	3.9090	-0.7991	24.03	-0.20	-0.050			
0.2028	12982.18	3.9080	3.9080	-0.8041	24.03	-0.20	-0.050			
0.2036	13032.14	3.9070	3.9071	-0.8099	24.04	-0.19	-0.050			
0.2044	13082.53	3.9060	3.9060	-0.8128	24.05	-0.18	-0.050			
0.2052	13133.68	3.9050	3.9051	-0.8194	24.06	-0.17	-0.050			
0.2060	13185.95	3.9040	3.9041	-0.8248	24.07	-0.16	-0.050			
0.2069	13239.01	3.9030	3.9029	-0.8296	24.08	-0.15	-0.050			
0.2077	13292.77	3.9020	3.9021	-0.8366	24.10	-0.13	-0.050			
0.2086	13347.82	3.9010	3.9008	-0.8415	24.12	-0.11	-0.050			
0.2094	13402.70	3.9000	3.8998	-0.8451	24.14	-0.09	-0.050			
0.2103	13457.73	3.8990	3.8989	-0.8477	24.16	-0.07	-0.050			
0.2111	13513.17	3.8980	3.8981	-0.8488	24.18	-0.05	-0.050			
0.2120	13568.10	3.8970	3.8971	-0.8504	24.20	-0.03	-0.050			
0.2129	13623.73	3.8960	3.8960	-0.8512	24.22	-0.01	-0.050			
0.2138	13680.31	3.8950	3.8951	-0.8516	24.25	0.02	-0.050			
0.2146	13736.36	3.8940	3.8942	-0.8489	24.27	0.04	-0.050			
0.2155	13791.09	3.8930	3.8929	-0.8456	24.29	0.06	-0.050			
0.2163	13845.58	3.8920	3.8920	-0.8414	24.29	0.06	-0.050			
0.2172	13899.69	3.8910	3.8911	-0.8383	24.29	0.06	-0.050			
0.2180	13952.50	3.8900	3.8900	-0.8327	24.29	0.06	-0.050			
0.2188	14005.38	3.8890	3.8888	-0.8268	24.28	0.05	-0.050			
0.2196	14056.89	3.8880	3.8880	-0.8191	24.27	0.04	-0.050			
0.2204	14108.03	3.8870	3.8872	-0.8139	24.25	0.02	-0.050	0.361	0.677	
0.2213	14160.01	3.8860	3.8860	-0.8098	24.25	0.02	-0.050			
0.2220	14211.12	3.8850	3.8849	-0.8077	24.24	0.01	-0.050			
0.2228	14262.14	3.8840	3.8840	-0.8072	24.22	-0.01	-0.050			
0.2237	14313.63	3.8830	3.8831	-0.8067	24.20	-0.03	-0.050			
0.2245	14364.80	3.8820	3.8820	-0.8059	24.19	-0.04	-0.050			
0.2252	14415.57	3.8810	3.8811	-0.8051	24.18	-0.05	-0.050			
0.2260	14467.12	3.8800	3.8800	-0.8062	24.15	-0.08	-0.050			
0.2269	14518.59	3.8790	3.8789	-0.8060	24.14	-0.09	-0.050			
0.2277	14570.26	3.8780	3.8778	-0.8035	24.12	-0.11	-0.050			
0.2285	14622.21	3.8770	3.8770	-0.8021	24.11	-0.12	-0.050			
0.2293	14674.33	3.8760	3.8758	-0.7992	24.10	-0.13	-0.050			
0.2301	14725.88	3.8750	3.8751	-0.7987	24.08	-0.15	-0.050			
0.2309	14777.15	3.8740	3.8740	-0.7975	24.06	-0.17	-0.050			
0.2317	14827.22	3.8730	3.8731	-0.7987	24.05	-0.18	-0.050			
0.2325	14877.48	3.8720	3.8721	-0.7996	24.03	-0.20	-0.050			
0.2332	14927.47	3.8710	3.8711	-0.8034	24.01	-0.22	-0.050			
0.2340	14978.48	3.8700	3.8701	-0.8062	24.01	-0.22	-0.050			
0.2348	15029.82	3.8690	3.8692	-0.8082	23.98	-0.25	-0.050			
0.2356	15081.04	3.8680	3.8679	-0.8139	23.98	-0.25	-0.050			
0.2364	15132.19	3.8670	3.8669	-0.8162	23.97	-0.26	-0.050			
0.2373	15184.20	3.8660	3.8658	-0.8212	23.98	-0.25	-0.050			
0.2381	15236.37	3.8650	3.8649	-0.8260	23.99	-0.24	-0.050			
0.2389	15289.09	3.8640	3.8638	-0.8275	24.00	-0.23	-0.050			
0.2397	15342.36	3.8630	3.8629	-0.8328	24.01	-0.22	-0.050			
0.2406	15396.33	3.8620	3.8621	-0.8366	24.03	-0.20	-0.050			
0.2414	15451.07	3.8610	3.8611	-0.8403	24.04	-0.19	-0.050			
0.2423	15505.83	3.8600	3.8601	-0.8438	24.06	-0.17	-0.050			
0.2431	15560.98	3.8590	3.8588	-0.8469	24.07	-0.16	-0.050			
0.2440	15616.29	3.8580	3.8581	-0.8509	24.09	-0.14	-0.050			
0.2449	15671.78	3.8570	3.8571	-0.8540	24.12	-0.11	-0.050			
0.2457	15727.35	3.8560	3.8560	-0.8553	24.14	-0.09	-0.050			
0.2466	15782.02	3.8550	3.8551	-0.8531	24.17	-0.06	-0.050			
0.2474	15836.29	3.8540	3.8540	-0.8526	24.19	-0.04	-0.050			
0.2483	15890.09	3.8530	3.8529	-0.8510	24.20	-0.03	-0.050			
0.2491	15944.36	3.8520	3.8521	-0.8490	24.23	0.00	-0.050			
0.2500	15998.17	3.8510	3.8509	-0.8500	24.25	0.02	-0.050			
0.2508	16052.53	3.8500	3.8499	-0.8504	24.28	0.05	-0.050			
0.2517	16106.74	3.8490	3.8490	-0.8521	24.30	0.07	-0.050			
0.2525	16160.73	3.8480	3.8481	-0.8513	24.31	0.08	-0.050			
0.2534	16215.62	3.8470	3.8471	-0.8513	24.31	0.08	-0.050			
0.2542	16270.54	3.8460	3.8460	-0.8503	24.32	0.09	-0.050			
0.2551	16326.08	3.8450	3.8448	-0.8475	24.32	0.09	-0.050			
0.2560	16381.00	3.8440	3.8441	-0.8464	24.31	0.08	-0.050			
0.2568	16435.96	3.8430	3.8430	-0.8440	24.30	0.07	-0.050			
0.2577	16490.06	3.8420	3.8418	-0.8419	24.28	0.05	-0.050			
0.2585	16544.09	3.8410	3.8410	-0.8405	24.27	0.04	-0.050			
0.2593	16597.88	3.8400	3.8400	-0.8391	24.26	0.03	-0.050			
0.2602	16650.60	3.8390	3.8390	-0.8371	24.24	0.01	-0.050	0.423	0.636	
0.2610	16703.41	3.8380	3.8382	-0.8353	24.22	-0.01	-0.050			
0.2618	16755.59	3.8370	3.8370	-0.8379	24.20	-0.03	-0.050			
0.2626	16808.74	3.8360	3.8360	-0.8399	24.19	-0.04	-0.050			
0.2635	16861.26	3.8350	3.8351	-0.8435	24.18	-0.05	-0.050			
0.2643	16913.68	3.8340	3.8340	-0.8450	24.16	-0.07	-0.050			
0.2651	16966.30	3.8330	3.8328	-0.8521	24.15	-0.08	-0.050			
0.2659	17019.74	3.8320	3.8319	-0.8598	24.15	-0.08	-0.050			
0.2668	17073.40	3.8310	3.8311	-0.8653	24.14	-0.09	-0.050			
0.2676	17128.81	3.8300	3.8299	-0.8742	24.13	-0.10	-0.050			
0.2685	17185.07	3.8290	3.8289	-0.8802	24.13	-0.10	-0.050			
0.2694	17243.60	3.8280	3.8279	-0.8857	24.11	-0.12	-0.050			
0.2703	17301.98	3.8270	3.8270	-0.8908	24.10	-0.13	-0.050			
0.2713	17360.98	3.8260	3.8260	-0.8942	24.10	-0.13	-0.050			
0.2722	17420.58	3.8250	3.8250	-0.8973	24.09	-0.14	-0.050			
0.2731	17479.10	3.8240	3.8240	-0.8999	24.07	-0.16	-0.050			
0.2740	17537.20	3.8230	3.8231	-0.9002	24.07	-0.16	-0.050			
0.2749	17595.89	3.8220	3.8223	-0.9013	24.06	-0.17	-0.050			
0.2758	17653.85	3.8210	3.8211	-0.8997	24.07	-0.16	-0.050			
0.2767	17711.65	3.8200	3.8202	-0.8981	24.08	-0.15	-0.050			
0.2776	17769.07	3.8190	3.8190	-0.8993	24.09	-0.14	-0.050			
0.2785	17826.25	3.8180	3.8181	-0.8965	24.11	-0.12	-0.050			
0.2794	17882.58	3.8170	3.8169	-0.8938	24.12	-0.11	-0.050			
0.2803	17939.30	3.8160	3.8158	-0.8924	24.14	-0.09	-0.050	0.429	0.713	
0.2812	17995.48	3.8150	3.8148	-0.8896	24.14	-0.09	-0.050			
0.2821	18052.08	3.8140	3.8140	-0.8878	24.16	-0.07	-0.050			
0.2829	18107.87	3.8130	3.8131	-0.8843	24.17	-0.06	-0.050			
0.2838	18164.33	3.8120	3.8120	-0.8843	24.18	-0.05	-0.050			
0.2847	18220.82	3.8110	3.8109	-0.8867	24.20	-0.03	-0.050			
0.2856	18277.55	3.8100	3.8100	-0.8906	24.21	-0.02	-0.050			
0.2865	18334.68	3.8090	3.8091	-0.8938	24.22	-0.01	-0.050			
0.2874	18391.98	3.8080	3.8081	-0.8990	24.23	0.00	-0.050			
0.2883	18449.82	3.8070	3.8070	-0.9012	24.25	0.02	-0.050			
0.2892	18507.84	3.8060	3.8060	-0.9035	24.25	0.02	-0.050			
0.2901	18565.80	3.8050	3.8050	-0.9011	24.25	0.02	-0.050			
0.2910	18623.05	3.8040	3.8039	-0.9020	24.24	0.01	-0.050			
0.2919	18680.97	3.8030	3.8029	-0.9045	24.22	-0.01	-0.050			
0.2928	18738.17	3.8020	3.8019	-0.9087	24.21	-0.02	-0.050			
0.2937	18795.67	3.8010	3.8011	-0.9133	24.20	-0.03	-0.050			
0.2946	18853.71	3.8000	3.8000	-0.9165	24.18	-0.05	-0.050			
0.2955	18911.75	3.7990	3.7991	-0.9214	24.15	-0.08	-0.050			
0.2964	18970.98	3.7980	3.7980	-0.9271	24.14	-0.09	-0.050			
0.2974	19030.79	3.7970	3.7971	-0.9316	24.12	-0.11	-0.050			
0.2983	19091.03	3.7960	3.7959	-0.9356	24.11	-0.12	-0.050			
0.2992	19151.35	3.7950	3.7948	-0.9394	24.08	-0.15	-0.050			
0.3002	19212.25	3.7940	3.7938	-0.9434	24.06	-0.17	-0.050	0.124	0.679	
0.3011	19272.92	3.7930	3.7931	-0.9466	24.05	-0.18	-0.050			
0.3021	19333.30	3.7920	3.7920	-0.9492	24.03	-0.20	-0.050			
0.3030	19394.70	3.7910	3.7911	-0.9490	24.02	-0.21	-0.050			
0.3040	19455.98	3.7900	3.7900	-0.9501	24.01	-0.22	-0.050			
0.3050	19517.29	3.7890	3.7892	-0.9525	23.99	-0.24	-0.050			
0.3059	19578.91	3.7880	3.7881	-0.9548	23.97	-0.26	-0.050			
0.3069	19640.77	3.7870	3.7869	-0.9563	23.96	-0.27	-0.050			
0.3079	19702.86	3.7860	3.7859	-0.9570	23.95	-0.28	-0.050			
0.3088	19764.74	3.7850	3.7849	-0.9578	23.95	-0.28	-0.050			
0.3098	19825.70	3.7840	3.7840	-0.9554	23.95	-0.28	-0.050			
0.3107	19886.61	3.7830	3.7829	-0.9520	23.95	-0.28	-0.050			
0.3117	19946.34	3.7820	3.7821	-0.9506	23.97	-0.26	-0.050			
0.3126	20006.63	3.7810	3.7808	-0.9507	23.99	-0.24	-0.050			
0.3135	20067.01	3.7800	3.7800	-0.9526	24.02	-0.21	-0.050			
0.3145	20127.43	3.7790	3.7791	-0.9534	24.04	-0.19	-0.050			
0.3154	20188.57	3.7780	3.7781	-0.9570	24.06	-0.17	-0.050			
0.3164	20249.54	3.7770	3.7768	-0.9592	24.09	-0.14	-0.050			
0.3174	20310.82	3.7760	3.7760	-0.9602	24.09	-0.14	-0.050			
0.3183	20371.75	3.7750	3.7751	-0.9629	24.12	-0.11	-0.050			
0.3193	20433.10	3.7740	3.7741	-0.9677	24.15	-0.08	-0.050			
0.3202	20494.38	3.7730	3.7729	-0.9714	24.18	-0.05	-0.050	0.214	0.699	
0.3212	20556.32	3.7720	3.7721	-0.9772	24.20	-0.03	-0.050			
0.3222	20619.05	3.7710	3.7711	-0.9830	24.21	-0.02	-0.050			
0.3232	20681.77	3.7700	3.7700	-0.9876	24.25	0.02	-0.050			
0.3241	20745.36	3.7690	3.7691	-0.9915	24.28	0.05	-0.050			
0.3251	20808.58	3.7680	3.7680	-1.0004	24.29	0.06	-0.050			
0.3261	20872.10	3.7670	3.7670	-1.0090	24.31	0.08	-0.050			
0.3271	20935.92	3.7660	3.7659	-1.0187	24.32	0.09	-0.050			
0.3281	21001.10	3.7650	3.7649	-1.0282	24.32	0.09	-0.050			
0.3292	21067.82	3.7640	3.7640	-1.0350	24.32	0.09	-0.050			
0.3302	21135.67	3.7630	3.7630	-1.0378	24.31	0.08	-0.050			
0.3313	21202.95	3.7620	3.7620	-1.0406	24.29	0.06	-0.050			
0.3323	21270.09	3.7610	3.7610	-1.0459	24.27	0.04	-0.050			
0.3334	21337.99	3.7600	3.7599	-1.0503	24.25	0.02	-0.050			
0.3345	21406.55	3.7590	3.7589	-1.0539	24.24	0.01	-0.050			
0.3355	21474.79	3.7580	3.7581	-1.0565	24.21	-0.02	-0.050			
0.3366	21544.12	3.7570	3.7570	-1.0567	24.20	-0.03	-0.050			
0.3377	21612.96	3.7560	3.7561	-1.0538	24.18	-0.05	-0.050			
0.3388	21680.50	3.7550	3.7552	-1.0531	24.17	-0.06	-0.050			
0.3398	21747.97	3.7540	3.7539	-1.0525	24.17	-0.06	-0.050			
0.3409	21814.85	3.7530	3.7529	-1.0526	24.14	-0.09	-0.050			
0.3419	21881.80	3.7520	3.7520	-1.0534	24.13	-0.10	-0.050			
0.3429	21948.69	3.7510	3.7512	-1.0543	24.13	-0.10	-0.050			
0.3440	22015.74	3.7500	3.7499	-1.0532	24.11	-0.12	-0.050			
0.3450	22081.86	3.7490	3.7490	-1.0534	24.10	-0.13	-0.050			
0.3460	22147.04	3.7480	3.7481	-1.0527	24.08	-0.15	-0.050			
0.3471	22213.05	3.7470	3.7467	-1.0562	24.06	-0.17	-0.050			
0.3481	22280.45	3.7460	3.7458	-1.0592	24.05	-0.18	-0.050			
0.3492	22349.44	3.7450	3.7450	-1.0637	24.04	-0.19	-0.050			
0.3503	22418.86	3.7440	3.7440	-1.0662	24.04	-0.19	-0.050			
0.3514	22488.14	3.7430	3.7429	-1.0697	24.05	-0.18	-0.050			
0.3524	22555.36	3.7420	3.7420	-1.0738	24.07	-0.16	-0.050			
0.3535	22623.67	3.7410	3.7410	-1.0784	24.10	-0.13	-0.050			
0.3546	22692.42	3.7400	3.7398	-1.0872	24.13	-0.10	-0.050			
0.3557	22761.67	3.7390	3.7391	-1.0962	24.13	-0.10	-0.050			
0.3567	22831.72	3.7380	3.7381	-1.1053	24.14	-0.09	-0.050			
0.3579	22902.64	3.7370	3.7371	-1.1145	24.16	-0.07	-0.050			
0.3590	22973.94	3.7360	3.7360	-1.1217	24.17	-0.06	-0.050			
0.3601	23044.60	3.7350	3.7350	-1.1275	24.19	-0.04	-0.050	0.506	0.639	
0.3612	23116.70	3.7340	3.7338	-1.1365	24.21	-0.02	-0.050			
0.3623	23190.01	3.7330	3.7328	-1.1433	24.23	0.00	-0.050			
0.3635	23264.12	3.7320	3.7320	-1.1499	24.23	0.00	-0.050			
0.3647	23338.51	3.7310	3.7310	-1.1575	24.23	0.00	-0.050			
0.3658	23413.56	3.7300	3.7301	-1.1657	24.23	0.00	-0.050			
0.3670	23488.31	3.7290	3.7289	-1.1728	24.22	-0.01	-0.050			
0.3682	23563.84	3.7280	3.7280	-1.1814	24.21	-0.02	-0.050			
0.3694	23640.80	3.7270	3.7270	-1.1896	24.19	-0.04	-0.050			
0.3706	23718.73	3.7260	3.7261	-1.1946	24.18	-0.05	-0.050			
0.3718	23797.04	3.7250	3.7250	-1.1999	24.17	-0.06	-0.050			
0.3730	23874.54	3.7240	3.7241	-1.2037	24.14	-0.09	-0.050			
0.3742	23951.88	3.7230	3.7230	-1.2031	24.14	-0.09	-0.050			
0.3754	24027.32	3.7220	3.7220	-1.2015	24.13	-0.10	-0.050			
0.3766	24104.38	3.7210	3.7211	-1.2036	24.13	-0.10	-0.050			
0.3778	24182.08	3.7200	3.7200	-1.2032	24.13	-0.10	-0.050			
0.3790	24259.06	3.7190	3.7190	-1.2049	24.13	-0.10	-0.050			
0.3803	24336.63	3.7180	3.7180	-1.2056	24.10	-0.13	-0.050	0.460	0.775	
0.3815	24413.97	3.7170	3.7170	-1.2069	24.09	-0.14	-0.050			
0.3827	24490.52	3.7160	3.7159	-1.2104	24.08	-0.15	-0.050			
0.3839	24567.31	3.7150	3.7150	-1.2135	24.06	-0.17	-0.050			
0.3850	24642.47	3.7140	3.7141	-1.2245	24.07	-0.16	-0.050			
0.3862	24718.79	3.7130	3.7131	-1.2366	24.08	-0.15	-0.050			
0.3874	24795.78	3.7120	3.7120	-1.2480	24.09	-0.14	-0.050			
0.3887	24873.97	3.7110	3.7111	-1.2592	24.13	-0.10	-0.050			
0.3899	24954.31	3.7100	3.7099	-1.2698	24.16	-0.07	-0.050			
0.3912	25036.66	3.7090	3.7089	-1.2822	24.18	-0.05	-0.050			
0.3925	25119.52	3.7080	3.7078	-1.2917	24.21	-0.02	-0.050			
0.3938	25203.49	3.7070	3.7067	-1.3045	24.21	-0.02	-0.050			
0.3951	25288.57	3.7060	3.7058	-1.3159	24.22	-0.01	-0.050			
0.3965	25374.40	3.7050	3.7048	-1.3245	24.23	0.00	-0.050			
0.3978	25460.59	3.7040	3.7041	-1.3339	24.25	0.02	-0.050			
0.3992	25547.51	3.7030	3.7032	-1.3452	24.26	0.03	-0.050			
0.4005	25634.73	3.7020	3.7023	-1.3540	24.28	0.05	-0.050	0.479	0.682	
0.4019	25723.76	3.7010	3.7011	-1.3625	24.29	0.06	-0.050			
0.4033	25813.77	3.7000	3.7000	-1.3671	24.28	0.05	-0.050			
0.4047	25902.61	3.6990	3.6989	-1.3668	24.25	0.02	-0.050			
0.4061	25990.49	3.6980	3.6981	-1.3705	24.22	-0.01	-0.050			
0.4075	26077.84	3.6970	3.6969	-1.3690	24.20	-0.03	-0.050			
0.4088	26164.27	3.6960	3.6960	-1.3666	24.17	-0.06	-0.050			
0.4102	26250.82	3.6950	3.6948	-1.3653	24.15	-0.08	-0.050			
0.4115	26334.97	3.6940	3.6940	-1.3640	24.14	-0.09	-0.050			
0.4128	26420.95	3.6930	3.6932	-1.3715	24.12	-0.11	-0.050			
0.4142	26506.99	3.6920	3.6923	-1.3860	24.10	-0.13	-0.050			
0.4155	26594.49	3.6910	3.6911	-1.4006	24.07	-0.16	-0.050			
0.4169	26683.89	3.6900	3.6899	-1.4139	24.05	-0.18	-0.050			
0.4183	26774.04	3.6890	3.6888	-1.4255	24.03	-0.20	-0.050			
0.4197	26863.89	3.6880	3.6881	-1.4392	24.01	-0.22	-0.050	0.601	0.781	
0.4212	26955.97	3.6870	3.6868	-1.4568	23.99	-0.24	-0.050			
0.4226	27048.72	3.6860	3.6859	-1.4691	23.96	-0.27	-0.050			
0.4241	27143.77	3.6850	3.6849	-1.4848	23.95	-0.28	-0.050			
0.4256	27239.53	3.6840	3.6839	-1.4986	23.95	-0.28	-0.050			
0.4271	27336.53	3.6830	3.6829	-1.5136	23.96	-0.27	-0.050			
0.4287	27436.46	3.6820	3.6819	-1.5278	23.99	-0.24	-0.050			
0.4303	27537.42	3.6810	3.6812	-1.5403	24.03	-0.20	-0.050			
0.4318	27638.39	3.6800	3.6800	-1.5511	24.06	-0.17	-0.050			
0.4334	27739.35	3.6790	3.6789	-1.5575	24.10	-0.13	-0.050			
0.4350	27840.86	3.6780	3.6779	-1.5646	24.14	-0.09	-0.050			
0.4366	27943.18	3.6770	3.6771	-1.5677	24.17	-0.06	-0.050			
0.4382	28044.69	3.6760	3.6760	-1.5674	24.19	-0.04	-0.050			
0.4398	28144.59	3.6750	3.6750	-1.5692	24.20	-0.03	-0.050	0.365	0.575	
0.4413	28242.98	3.6740	3.6740	-1.5697	24.19	-0.04	-0.050			
0.4428	28342.07	3.6730	3.6732	-1.5734	24.17	-0.06	-0.050			
0.4444	28440.13	3.6720	3.6720	-1.5843	24.15	-0.08	-0.050			
0.4459	28537.63	3.6710	3.6710	-1.6031	24.14	-0.09	-0.050			
0.4475	28637.40	3.6700	3.6701	-1.6215	24.11	-0.12	-0.050			
0.4491	28740.10	3.6690	3.6690	-1.6372	24.09	-0.14	-0.050			
0.4507	28842.77	3.6680	3.6681	-1.6527	24.09	-0.14	-0.050			
0.4523	28948.65	3.6670	3.6670	-1.6696	24.07	-0.16	-0.050			
0.4540	29057.46	3.6660	3.6658	-1.6865	24.06	-0.17	-0.050			
0.4557	29166.75	3.6650	3.6648	-1.7016	24.05	-0.18	-0.050			
0.4575	29278.37	3.6640	3.6638	-1.7161	24.06	-0.17	-0.050			
0.4592	29389.99	3.6630	3.6629	-1.7339	24.07	-0.16	-0.050			
0.4610	29503.77	3.6620	3.6620	-1.7517	24.12	-0.11	-0.050	0.514	0.692	
0.4628	29618.84	3.6610	3.6612	-1.7607	24.15	-0.08	-0.050			
0.4646	29734.96	3.6600	3.6601	-1.7699	24.19	-0.04	-0.050			
0.4664	29852.68	3.6590	3.6590	-1.7770	24.24	0.01	-0.050			
0.4683	29969.99	3.6580	3.6580	-1.7759	24.28	0.05	-0.050			
0.4701	30086.27	3.6570	3.6569	-1.7728	24.30	0.07	-0.050			
0.4719	30199.73	3.6560	3.6559	-1.7709	24.34	0.11	-0.050			
0.4736	30310.66	3.6550	3.6549	-1.7698	24.37	0.14	-0.050			
0.4753	30420.28	3.6540	3.6541	-1.7724	24.38	0.15	-0.050			
0.4770	30529.50	3.6530	3.6530	-1.7796	24.37	0.14	-0.050			
0.4787	30639.40	3.6520	3.6522	-1.7850	24.32	0.09	-0.050			
0.4805	30750.63	3.6510	3.6511	-1.7928	24.27	0.04	-0.050	0.404	0.696	
0.4823	30865.27	3.6500	3.6501	-1.8037	24.21	-0.02	-0.050			
0.4841	30981.26	3.6490	3.6489	-1.8157	24.17	-0.06	-0.050			
0.4859	31097.62	3.6480	3.6477	-1.8252	24.15	-0.08	-0.050			
0.4878	31216.17	3.6470	3.6467	-1.8335	24.12	-0.11	-0.050			
0.4896	31336.12	3.6460	3.6458	-1.8383	24.09	-0.14	-0.050			
0.4915	31455.65	3.6450	3.6449	-1.8419	24.07	-0.16	-0.050			
0.4934	31574.78	3.6440	3.6440	-1.8459	24.06	-0.17	-0.050			
0.4952	31695.82	3.6430	3.6432	-1.8460	24.02	-0.21	-0.050			
0.4971	31817.57	3.6420	3.6421	-1.8488	23.99	-0.24	-0.050			
0.4991	31939.56	3.6410	3.6410	-1.8512	23.99	-0.24	-0.050			
0.5009	32059.92	3.6400	3.6400	-1.8543	24.03	-0.20	-0.050	0.490	0.799	
0.5028	32178.00	3.6390	3.6389	-1.8569	24.08	-0.15	-0.050			
0.5046	32293.07	3.6380	3.6381	-1.8637	24.11	-0.12	-0.050			
0.5064	32407.55	3.6370	3.6370	-1.8653	24.12	-0.11	-0.050			
0.5082	32522.95	3.6360	3.6359	-1.8660	24.14	-0.09	-0.050			
0.5100	32639.87	3.6350	3.6350	-1.8669	24.17	-0.06	-0.050			
0.5119	32758.57	3.6340	3.6341	-1.8699	24.19	-0.04	-0.050			
0.5137	32876.90	3.6330	3.6329	-1.8757	24.19	-0.04	-0.050			
0.5156	32998.16	3.6320	3.6319	-1.8842	24.19	-0.04	-0.050			
0.5175	33120.57	3.6310	3.6308	-1.8917	24.16	-0.07	-0.050			
0.5194	33243.11	3.6300	3.6298	-1.8999	24.13	-0.10	-0.050			
0.5213	33365.94	3.6290	3.6289	-1.9090	24.11	-0.12	-0.050	0.352	0.561	
0.5233	33490.29	3.6280	3.6282	-1.9164	24.09	-0.14	-0.050			
0.5253	33616.09	3.6270	3.6272	-1.9216	24.09	-0.14	-0.050			
0.5272	33741.73	3.6260	3.6262	-1.9232	24.07	-0.16	-0.050			
0.5292	33866.96	3.6250	3.6249	-1.9229	24.05	-0.18	-0.050			
0.5311	33991.55	3.6240	3.6239	-1.9248	24.02	-0.21	-0.050			
0.5330	34113.63	3.6230	3.6231	-1.9330	24.01	-0.22	-0.050			
0.5349	34235.61	3.6220	3.6220	-1.9325	24.02	-0.21	-0.050			
0.5368	34357.72	3.6210	3.6209	-1.9278	24.07	-0.16	-0.050			
0.5387	34477.99	3.6200	3.6201	-1.9219	24.12	-0.11	-0.050			
0.5406	34597.92	3.6190	3.6191	-1.9232	24.17	-0.06	-0.050			
0.5425	34720.11	3.6180	3.6179	-1.9265	24.21	-0.02	-0.050			
0.5444	34844.03	3.6170	3.6169	-1.9327	24.25	0.02	-0.050			
0.5464	34970.32	3.6160	3.6158	-1.9387	24.27	0.04	-0.050			
0.5484	35096.65	3.6150	3.6149	-1.9371	24.30	0.07	-0.050			
0.5503	35221.91	3.6140	3.6140	-1.9337	24.31	0.08	-0.050			
0.5523	35348.19	3.6130	3.6131	-1.9299	24.29	0.06	-0.050			
0.5543	35473.77	3.6120	3.6120	-1.9244	24.27	0.04	-0.050			
0.5562	35598.13	3.6110	3.6110	-1.9165	24.22	-0.01	-0.050			
0.5581	35720.61	3.6100	3.6100	-1.9095	24.19	-0.04	-0.050			
0.5601	35843.56	3.6090	3.6091	-1.9044	24.16	-0.07	-0.050	0.331	0.681	
0.5620	35966.90	3.6080	3.6082	-1.9019	24.13	-0.10	-0.050			
0.5639	36088.19	3.6070	3.6070	-1.8945	24.11	-0.12	-0.050			
0.5657	36207.23	3.6060	3.6061	-1.8891	24.07	-0.16	-0.050			
0.5676	36324.53	3.6050	3.6050	-1.8821	24.02	-0.21	-0.050			
0.5694	36441.64	3.6040	3.6039	-1.8771	23.98	-0.25	-0.050			
0.5712	36558.80	3.6030	3.6030	-1.8754	23.96	-0.27	-0.050			
0.5731	36679.26	3.6020	3.6020	-1.8754	23.96	-0.27	-0.050			
0.5750	36799.67	3.6010	3.6008	-1.8740	24.00	-0.23	-0.050			
0.5769	36918.83	3.6000	3.6000	-1.8680	24.06	-0.17	-0.050			
0.5787	37038.38	3.5990	3.5990	-1.8634	24.10	-0.13	-0.050			
0.5807	37162.02	3.5980	3.5978	-1.8564	24.14	-0.09	-0.050	0.372	0.736	
0.5826	37283.52	3.5970	3.5969	-1.8485	24.19	-0.04	-0.050			
0.5844	37404.25	3.5960	3.5961	-1.8433	24.23	0.00	-0.050			
0.5863	37523.53	3.5950	3.5950	-1.8370	24.27	0.04	-0.050			
0.5882	37642.34	3.5940	3.5940	-1.8286	24.28	0.05	-0.050			
0.5900	37760.20	3.5930	3.5932	-1.8158	24.26	0.03	-0.050			
0.5918	37876.74	3.5920	3.5921	-1.8005	24.22	-0.01	-0.050			
0.5936	37990.69	3.5910	3.5911	-1.7868	24.20	-0.03	-0.050			
0.5954	38103.21	3.5900	3.5902	-1.7742	24.17	-0.06	-0.050			
0.5971	38212.22	3.5890	3.5890	-1.7717	24.14	-0.09	-0.050			
0.5988	38321.41	3.5880	3.5878	-1.7666	24.13	-0.10	-0.050			
0.6005	38431.94	3.5870	3.5870	-1.7591	24.12	-0.11	-0.050	0.387	0.678	
0.6022	38542.31	3.5860	3.5861	-1.7527	24.11	-0.12	-0.050			
0.6039	38652.73	3.5850	3.5851	-1.7523	24.09	-0.14	-0.050			
0.6057	38763.85	3.5840	3.5840	-1.7527	24.07	-0.16	-0.050			
0.6074	38876.71	3.5830	3.5830	-1.7533	24.07	-0.16	-0.050			
0.6092	38990.84	3.5820	3.5819	-1.7515	24.08	-0.15	-0.050			
0.6110	39105.59	3.5810	3.5810	-1.7470	24.11	-0.12	-0.050			
0.6128	39219.80	3.5800	3.5800	-1.7438	24.14	-0.09	-0.050			
0.6146	39334.78	3.5790	3.5791	-1.7356	24.17	-0.06	-0.050			
0.6164	39449.30	3.5780	3.5782	-1.7241	24.21	-0.02	-0.050			
0.6181	39561.10	3.5770	3.5771	-1.7048	24.22	-0.01	-0.050			
0.6199	39671.12	3.5760	3.5760	-1.6890	24.23	0.00	-0.050	0.451	0.585	
0.6216	39780.74	3.5750	3.5752	-1.6726	24.26	0.03	-0.050			
0.6233	39888.51	3.5740	3.5742	-1.6545	24.29	0.06	-0.050			
0.6249	39994.39	3.5730	3.5731	-1.6343	24.29	0.06	-0.050			
0.6265	40097.23	3.5720	3.5719	-1.6152	24.27	0.04	-0.050			
0.6281	40197.61	3.5710	3.5710	-1.5930	24.23	-0.00	-0.050			
0.6296	40295.22	3.5700	3.5700	-1.5742	24.19	-0.04	-0.050			
0.6311	40391.73	3.5690	3.5691	-1.5568	24.16	-0.07	-0.050			
0.6326	40489.24	3.5680	3.5680	-1.5476	24.13	-0.10	-0.050			
0.6342	40586.80	3.5670	3.5670	-1.5407	24.11	-0.12	-0.050			
0.6357	40682.73	3.5660	3.5661	-1.5296	24.09	-0.14	-0.050			
0.6372	40778.74	3.5650	3.5649	-1.5193	24.06	-0.17	-0.050			
0.6387	40876.44	3.5640	3.5640	-1.5136	24.06	-0.17	-0.050			
0.6402	40975.49	3.5630	3.5629	-1.5039	24.05	-0.18	-0.050	0.451	0.619	
0.6418	41072.63	3.5620	3.5619	-1.4954	24.05	-0.18	-0.050			
0.6433	41168.80	3.5610	3.5610	-1.4854	24.03	-0.20	-0.050			
0.6448	41264.35	3.5600	3.5600	-1.4775	24.01	-0.22	-0.050			
0.6463	41360.45	3.5590	3.5591	-1.4705	23.99	-0.24	-0.050			
0.6477	41455.39	3.5580	3.5581	-1.4607	24.01	-0.22	-0.050			
0.6492	41548.30	3.5570	3.5571	-1.4514	24.03	-0.20	-0.050			
0.6506	41640.51	3.5560	3.5562	-1.4397	24.06	-0.17	-0.050			
0.6521	41732.63	3.5550	3.5551	-1.4294	24.10	-0.13	-0.050			
0.6535	41823.68	3.5540	3.5539	-1.4174	24.14	-0.09	-0.050			
0.6549	41914.57	3.5530	3.5529	-1.4010	24.18	-0.05	-0.050			
0.6563	42003.70	3.5520	3.5518	-1.3820	24.21	-0.02	-0.050			
0.6577	42091.84	3.5510	3.5509	-1.3664	24.24	0.01	-0.050			
0.6590	42177.97	3.5500	3.5499	-1.3505	24.26	0.03	-0.050			
0.6604	42263.19	3.5490	3.5490	-1.3382	24.29	0.06	-0.050	0.328	0.631	
0.6617	42346.52	3.5480	3.5480	-1.3326	24.29	0.06	-0.050			
0.6630	42430.16	3.5470	3.5472	-1.3268	24.29	0.06	-0.050			
0.6643	42514.00	3.5460	3.5461	-1.3241	24.29	0.06	-0.050			
0.6656	42598.35	3.5450	3.5451	-1.3192	24.27	0.04	-0.050			
0.6669	42682.41	3.5440	3.5441	-1.3161	24.25	0.02	-0.050			
0.6682	42765.94	3.5430	3.5429	-1.3101	24.23	-0.00	-0.050			
0.6695	42848.84	3.5420	3.5417	-1.3032	24.19	-0.04	-0.050			
0.6708	42930.61	3.5410	3.5408	-1.3007	24.16	-0.07	-0.050			
0.6721	43012.15	3.5400	3.5399	-1.2996	24.13	-0.10	-0.050			
0.6734	43094.56	3.5390	3.5389	-1.2997	24.10	-0.13	-0.050			
0.6746	43176.68	3.5380	3.5381	-1.3000	24.06	-0.17	-0.050			
0.6759	43259.46	3.5370	3.5372	-1.3007	24.04	-0.19	-0.050			
0.6772	43343.11	3.5360	3.5362	-1.3063	24.01	-0.22	-0.050			
0.6786	43427.36	3.5350	3.5351	-1.3117	24.00	-0.23	-0.050			
0.6799	43512.83	3.5340	3.5339	-1.3159	23.98	-0.25	-0.050	0.496	0.800	
0.6812	43598.91	3.5330	3.5330	-1.3207	23.98	-0.25	-0.050			
0.6826	43685.01	3.5320	3.5318	-1.3177	23.99	-0.24	-0.050			
0.6839	43769.85	3.5310	3.5309	-1.3123	24.01	-0.22	-0.050			
0.6852	43853.19	3.5300	3.5300	-1.3092	24.04	-0.19	-0.050			
0.6865	43935.94	3.5290	3.5289	-1.3063	24.09	-0.14	-0.050			
0.6878	44018.15	3.5280	3.5281	-1.3065	24.11	-0.12	-0.050			
0.6891	44101.32	3.5270	3.5271	-1.3102	24.14	-0.09	-0.050			
0.6904	44184.81	3.5260	3.5261	-1.3153	24.17	-0.06	-0.050			
0.6917	44268.18	3.5250	3.5252	-1.3242	24.19	-0.04	-0.050			
0.6930	44351.44	3.5240	3.5241	-1.3306	24.22	-0.01	-0.050			
0.6943	44434.09	3.5230	3.5232	-1.3428	24.25	0.02	-0.050			
0.6956	44517.98	3.5220	3.5218	-1.3533	24.27	0.04	-0.050			
0.6969	44602.45	3.5210	3.5209	-1.3641	24.30	0.07	-0.050			
0.6983	44688.32	3.5200	3.5199	-1.3805	24.31	0.08	-0.050			
0.6996	44776.38	3.5190	3.5190	-1.3966	24.31	0.08	-0.050			
0.7010	44865.56	3.5180	3.5179	-1.4100	24.31	0.08	-0.050	0.498	0.670	
0.7025	44957.58	3.5170	3.5169	-1.4239	24.29	0.06	-0.050			
0.7039	45050.14	3.5160	3.5159	-1.4383	24.28	0.05	-0.050			
0.7054	45144.78	3.5150	3.5150	-1.4520	24.27	0.04	-0.050			
0.7069	45241.79	3.5140	3.5140	-1.4613	24.24	0.01	-0.050			
0.7084	45338.76	3.5130	3.5132	-1.4695	24.23	-0.00	-0.050			
0.7099	45436.53	3.5120	3.5120	-1.4770	24.21	-0.02	-0.050			
0.7114	45532.39	3.5110	3.5110	-1.4799	24.21	-0.02	-0.050			
0.7129	45627.60	3.5100	3.5101	-1.4803	24.19	-0.04	-0.050			
0.7144	45723.06	3.5090	3.5091	-1.4821	24.17	-0.06	-0.050			
0.7159	45819.39	3.5080	3.5080	-1.4769	24.14	-0.09	-0.050			
0.7174	45916.78	3.5070	3.5069	-1.4693	24.11	-0.12	-0.050			
0.7189	46011.16	3.5060	3.5061	-1.4571	24.09	-0.14	-0.050			
0.7204	46104.04	3.5050	3.5050	-1.4477	24.06	-0.17	-0.050	0.369	0.585	
0.7218	46194.35	3.5040	3.5039	-1.4428	24.07	-0.16	-0.050			
0.7232	46285.11	3.5030	3.5028	-1.4346	24.10	-0.13	-0.050			
0.7246	46375.60	3.5020	3.5020	-1.4309	24.13	-0.10	-0.050			
0.7260	46465.93	3.5010	3.5011	-1.4279	24.15	-0.08	-0.050			
0.7274	46555.65	3.5000	3.5002	-1.4272	24.18	-0.05	-0.050			
0.7289	46646.97	3.4990	3.4992	-1.4247	24.19	-0.04	-0.050			
0.7303	46738.66	3.4980	3.4977	-1.4209	24.20	-0.03	-0.050			
0.7317	46830.15	3.4970	3.4967	-1.4159	24.21	-0.02	-0.050			
0.7331	46921.51	3.4960	3.4957	-1.4102	24.22	-0.01	-0.050			
0.7346	47013.26	3.4950	3.4948	-1.4021	24.22	-0.01	-0.050			
0.7360	47105.43	3.4940	3.4940	-1.3877	24.21	-0.02	-0.050			
0.7374	47196.09	3.4930	3.4930	-1.3720	24.21	-0.02	-0.050			
0.7388	47284.55	3.4920	3.4920	-1.3545	24.19	-0.04	-0.050			
0.7402	47373.17	3.4910	3.4910	-1.3331	24.17	-0.06	-0.050	0.319	0.778	
0.7416	47460.22	3.4900	3.4902	-1.3119	24.14	-0.09	-0.050			
0.7429	47547.64	3.4890	3.4891	-1.2958	24.11	-0.12	-0.050			
0.7442	47631.77	3.4880	3.4879	-1.2713	24.10	-0.13	-0.050			
0.7455	47714.19	3.4870	3.4871	-1.2458	24.09	-0.14	-0.050			
0.7468	47793.00	3.4860	3.4860	-1.2129	24.06	-0.17	-0.050			
0.7480	47868.81	3.4850	3.4850	-1.1793	24.05	-0.18	-0.050			
0.7491	47941.71	3.4840	3.4840	-1.1481	24.02	-0.21	-0.050			
0.7502	48013.07	3.4830	3.4831	-1.1222	23.99	-0.24	-0.050			
0.7513	48082.36	3.4820	3.4819	-1.0923	23.98	-0.25	-0.050			
0.7523	48149.69	3.4810	3.4809	-1.0677	23.96	-0.27	-0.050			
0.7534	48215.60	3.4800	3.4800	-1.0430	23.95	-0.28	-0.050			
0.7544	48280.93	3.4790	3.4790	-1.0214	23.93	-0.30	-0.050			
0.7554	48344.56	3.4780	3.4781	-0.9991	23.93	-0.30	-0.050			
0.7564	48407.08	3.4770	3.4770	-0.9771	23.94	-0.29	-0.050			
0.7573	48468.46	3.4760	3.4760	-0.9568	23.94	-0.29	-0.050			
0.7583	48529.39	3.4750	3.4749	-0.9382	23.96	-0.27	-0.050			
0.7592	48588.98	3.4740	3.4739	-0.9224	23.98	-0.25	-0.050			
0.7601	48646.78	3.4730	3.4729	-0.9035	24.01	-0.22	-0.050			
0.7610	48704.01	3.4720	3.4720	-0.8876	24.03	-0.20	-0.050	0.419	0.624	
0.7619	48759.62	3.4710	3.4710	-0.8715	24.05	-0.18	-0.050			
0.7627	48813.93	3.4700	3.4701	-0.8547	24.08	-0.15	-0.050			
0.7636	48867.90	3.4690	3.4691	-0.8388	24.10	-0.13	-0.050			
0.7644	48920.57	3.4680	3.4680	-0.8237	24.12	-0.11	-0.050			
0.7652	48972.82	3.4670	3.4670	-0.8095	24.14	-0.09	-0.050			
0.7660	49024.30	3.4660	3.4659	-0.7955	24.16	-0.07	-0.050			
0.7668	49075.03	3.4650	3.4649	-0.7809	24.18	-0.05	-0.050			
0.7676	49123.96	3.4640	3.4640	-0.7646	24.20	-0.03	-0.050			
0.7683	49172.09	3.4630	3.4630	-0.7480	24.22	-0.01	-0.050			
0.7691	49219.65	3.4620	3.4621	-0.7331	24.23	0.00	-0.050			
0.7698	49266.22	3.4610	3.4612	-0.7187	24.25	0.02	-0.050			
0.7705	49312.00	3.4600	3.4601	-0.7040	24.26	0.03	-0.050			
0.7712	49356.81	3.4590	3.4589	-0.6899	24.28	0.05	-0.050			
0.7719	49401.72	3.4580	3.4579	-0.6761	24.30	0.07	-0.050			
0.7726	49445.05	3.4570	3.4571	-0.6601	24.31	0.08	-0.050			
0.7732	49486.88	3.4560	3.4559	-0.6442	24.32	0.09	-0.050			
0.7739	49527.34	3.4550	3.4551	-0.6282	24.32	0.09	-0.050			
0.7745	49566.60	3.4540	3.4539	-0.6106	24.32	0.09	-0.050			
0.7751	49604.56	3.4530	3.4530	-0.5967	24.32	0.09	-0.050			
0.7756	49641.58	3.4520	3.4519	-0.5826	24.32	0.09	-0.050			
0.7762	49677.40	3.4510	3.4510	-0.5696	24.31	0.08	-0.050			
0.7768	49712.39	3.4500	3.4501	-0.5576	24.31	0.08	-0.050			
0.7773	49747.48	3.4490	3.4491	-0.5453	24.31	0.08	-0.050			
0.7778	49781.05	3.4480	3.4479	-0.5339	24.31	0.08	-0.050			
0.7783	49813.81	3.4470	3.4470	-0.5236	24.31	0.08	-0.050			
0.7789	49846.63	3.4460	3.4458	-0.5138	24.31	0.08	-0.050			
0.7794	49878.90	3.4450	3.4449	-0.5042	24.30	0.07	-0.050			
0.7799	49910.49	3.4440	3.4439	-0.4959	24.30	0.07	-0.050			
0.7803	49941.61	3.4430	3.4430	-0.4874	24.29	0.06	-0.050			
0.7808	49972.51	3.4420	3.4420	-0.4790	24.29	0.06	-0.050	0.319	0.675	
0.7813	50002.77	3.4410	3.4410	-0.4709	24.29	0.06	-0.050			
0.7818	50032.55	3.4400	3.4400	-0.4636	24.28	0.05	-0.050			
0.7822	50061.90	3.4390	3.4392	-0.4571	24.27	0.04	-0.050			
0.7827	50091.03	3.4380	3.4381	-0.4515	24.26	0.03	-0.050			
0.7831	50120.00	3.4370	3.4369	-0.4453	24.26	0.03	-0.050			
0.7836	50148.31	3.4360	3.4361	-0.4394	24.25	0.02	-0.050			
0.7840	50176.07	3.4350	3.4351	-0.4320	24.25	0.02	-0.050			
0.7844	50203.11	3.4340	3.4339	-0.4269	24.25	0.02	-0.050			
0.7848	50229.85	3.4330	3.4331	-0.4207	24.25	0.02	-0.050			
0.7853	50256.12	3.4320	3.4319	-0.4139	24.24	0.01	-0.050			
0.7857	50282.26	3.4310	3.4309	-0.4082	24.24	0.01	-0.050			
0.7861	50307.81	3.4300	3.4300	-0.4021	24.23	0.00	-0.050			
0.7865	50333.46	3.4290	3.4289	-0.3971	24.23	-0.00	-0.050			
0.7869	50358.93	3.4280	3.4280	-0.3908	24.22	-0.01	-0.050			
0.7872	50383.87	3.4270	3.4270	-0.3860	24.22	-0.01	-0.050			
0.7876	50408.58	3.4260	3.4259	-0.3802	24.21	-0.02	-0.050			
0.7880	50432.75	3.4250	3.4249	-0.3748	24.21	-0.02	-0.050			
0.7884	50457.28	3.4240	3.4241	-0.3698	24.21	-0.02	-0.050			
0.7888	50480.75	3.4230	3.4231	-0.3635	24.20	-0.03	-0.050			
0.7891	50503.93	3.4220	3.4220	-0.3575	24.20	-0.03	-0.050			
0.7895	50526.89	3.4210	3.4210	-0.3529	24.19	-0.04	-0.050			
0.7898	50549.26	3.4200	3.4200	-0.3463	24.19	-0.04	-0.050			
0.7902	50570.94	3.4190	3.4191	-0.3410	24.18	-0.05	-0.050			
0.7905	50592.37	3.4180	3.4182	-0.3345	24.18	-0.05	-0.050			
0.7908	50613.19	3.4170	3.4170	-0.3302	24.18	-0.05	-0.050			
0.7912	50633.92	3.4160	3.4159	-0.3244	24.17	-0.06	-0.050			
0.7915	50653.96	3.4150	3.4150	-0.3216	24.17	-0.06	-0.050			
0.7918	50673.99	3.4140	3.4140	-0.3166	24.15	-0.08	-0.050			
0.7921	50692.98	3.4130	3.4131	-0.3129	24.14	-0.09	-0.050			
0.7924	50712.92	3.4120	3.4120	-0.3102	24.14	-0.09	-0.050			
0.7927	50731.89	3.4110	3.4108	-0.3081	24.13	-0.10	-0.050			
0.7930	50751.54	3.4100	3.4101	-0.3062	24.13	-0.10	-0.050			
0.7933	50770.61	3.4090	3.4089	-0.3031	24.12	-0.11	-0.050			
0.7936	50789.60	3.4080	3.4080	-0.3008	24.12	-0.11	-0.050			
0.7939	50808.99	3.4070	3.4069	-0.2993	24.11	-0.12	-0.050			
0.7942	50828.13	3.4060	3.4059	-0.2982	24.10	-0.13	-0.050			
0.7945	50847.17	3.4050	3.4049	-0.2970	24.09	-0.14	-0.050			
0.7948	50866.34	3.4040	3.4040	-0.2949	24.09	-0.14	-0.050			
0.7951	50885.17	3.4030	3.4030	-0.2934	24.09	-0.14	-0.050			
0.7954	50904.23	3.4020	3.4021	-0.2905	24.09	-0.14	-0.050			
0.7957	50923.21	3.4010	3.4009	-0.2894	24.09	-0.14	-0.050			
0.7960	50941.76	3.4000	3.4001	-0.2867	24.08	-0.15	-0.050			
0.7963	50960.24	3.3990	3.3991	-0.2847	24.08	-0.15	-0.050			
0.7965	50978.38	3.3980	3.3980	-0.2821	24.08	-0.15	-0.050			
0.7968	50996.71	3.3970	3.3970	-0.2803	24.09	-0.14	-0.050			
0.7971	51014.56	3.3960	3.3960	-0.2773	24.09	-0.14	-0.050			
0.7974	51032.13	3.3950	3.3950	-0.2752	24.09	-0.14	-0.050			
0.7977	51049.65	3.3940	3.3940	-0.2723	24.09	-0.14	-0.050			
0.7979	51066.77	3.3930	3.3930	-0.2691	24.09	-0.14	-0.050			
0.7982	51083.86	3.3920	3.3921	-0.2666	24.09	-0.14	-0.050			
0.7984	51100.69	3.3910	3.3910	-0.2638	24.10	-0.13	-0.050			
0.7987	51117.29	3.3900	3.3900	-0.2619	24.11	-0.12	-0.050			
0.7990	51133.73	3.3890	3.3889	-0.2591	24.11	-0.12	-0.050			
0.7992	51150.25	3.3880	3.3881	-0.2572	24.12	-0.11	-0.050			
0.7995	51166.43	3.3870	3.3870	-0.2558	24.13	-0.10	-0.050			
0.7997	51182.75	3.3860	3.3861	-0.2541	24.13	-0.10	-0.050			
0.8000	51199.04	3.3850	3.3850	-0.2521	24.13	-0.10	-0.050			
0.8002	51214.90	3.3840	3.3839	-0.2499	24.14	-0.09	-0.050			
0.8005	51230.84	3.3830	3.3830	-0.2482	24.14	-0.09	-0.050			
0.8007	51246.60	3.3820	3.3820	-0.2466	24.14	-0.09	-0.050	0.369	0.847	
0.8010	51262.34	3.3810	3.3809	-0.2451	24.15	-0.08	-0.050			
0.8012	51278.07	3.3800	3.3800	-0.2437	24.15	-0.08	-0.050			
0.8015	51293.61	3.3790	3.3790	-0.2421	24.15	-0.08	-0.050			
0.8017	51309.05	3.3780	3.3780	-0.2404	24.16	-0.07	-0.050			
0.8019	51324.32	3.3770	3.3770	-0.2387	24.16	-0.07	-0.050			
0.8022	51339.65	3.3760	3.3761	-0.2367	24.17	-0.06	-0.050			
0.8024	51354.81	3.3750	3.3750	-0.2351	24.17	-0.06	-0.050			
0.8027	51369.69	3.3740	3.3741	-0.2336	24.18	-0.05	-0.050			
0.8029	51384.59	3.3730	3.3731	-0.2320	24.18	-0.05	-0.050			
0.8031	51399.45	3.3720	3.3719	-0.2304	24.18	-0.05	-0.050			
0.8033	51414.21	3.3710	3.3709	-0.2285	24.19	-0.04	-0.050			
0.8036	51428.87	3.3700	3.3701	-0.2270	24.19	-0.04	-0.050			
0.8038	51443.34	3.3690	3.3689	-0.2251	24.20	-0.03	-0.050			
0.8040	51457.61	3.3680	3.3680	-0.2235	24.20	-0.03	-0.050			
0.8042	51471.71	3.3670	3.3670	-0.2214	24.20	-0.03	-0.050			
0.8045	51485.83	3.3660	3.3660	-0.2197	24.21	-0.02	-0.050			
0.8047	51499.76	3.3650	3.3650	-0.2178	24.21	-0.02	-0.050			
0.8049	51513.65	3.3640	3.3640	-0.2162	24.21	-0.02	-0.050			
0.8051	51527.44	3.3630	3.3629	-0.2146	24.22	-0.01	-0.050			
0.8053	51541.32	3.3620	3.3620	-0.2133	24.22	-0.01	-0.050			
0.8055	51554.64	3.3610	3.3611	-0.2125	24.22	-0.01	-0.050			
0.8058	51568.20	3.3600	3.3601	-0.2110	24.23	-0.00	-0.050			
0.8060	51581.40	3.3590	3.3590	-0.2092	24.24	0.01	-0.050			
0.8062	51594.46	3.3580	3.3581	-0.2091	24.24	0.01	-0.050			
0.8064	51607.81	3.3570	3.3570	-0.2082	24.25	0.02	-0.050			
0.8066	51620.87	3.3560	3.3560	-0.2070	24.25	0.02	-0.050			
0.8068	51634.11	3.3550	3.3551	-0.2063	24.26	0.03	-0.050			
0.8070	51647.15	3.3540	3.3539	-0.2053	24.26	0.03	-0.050			
0.8072	51660.27	3.3530	3.3529	-0.2047	24.26	0.03	-0.050			
0.8074	51673.47	3.3520	3.3519	-0.2038	24.26	0.03	-0.050			
0.8076	51686.28	3.3510	3.3509	-0.2026	24.27	0.04	-0.050			
0.8078	51699.23	3.3500	3.3500	-0.2021	24.27	0.04	-0.050			
0.8080	51712.32	3.3490	3.3490	-0.2010	24.27	0.04	-0.050			
0.8082	51725.37	3.3480	3.3479	-0.2008	24.27	0.04	-0.050			
0.8084	51738.20	3.3470	3.3470	-0.2000	24.28	0.05	-0.050			
0.8086	51751.14	3.3460	3.3461	-0.1986	24.28	0.05	-0.050			
0.8088	51764.01	3.3450	3.3451	-0.1981	24.29	0.06	-0.050			
0.8090	51776.64	3.3440	3.3441	-0.1969	24.29	0.06	-0.050			
0.8092	51789.21	3.3430	3.3430	-0.1957	24.29	0.06	-0.050			
0.8094	51801.68	3.3420	3.3420	-0.1945	24.29	0.06	-0.050			
0.8096	51814.37	3.3410	3.3409	-0.1938	24.29	0.06	-0.050			
0.8098	51826.73	3.3400	3.3400	-0.1924	24.29	0.06	-0.050			
0.8100	51838.79	3.3390	3.3391	-0.1917	24.29	0.06	-0.050			
0.8102	51850.87	3.3380	3.3380	-0.1902	24.29	0.06	-0.050			
0.8104	51863.01	3.3370	3.3370	-0.1892	24.29	0.06	-0.050			
0.8105	51875.08	3.3360	3.3360	-0.1881	24.29	0.06	-0.050			
0.8107	51886.84	3.3350	3.3350	-0.1867	24.29	0.06	-0.050			
0.8109	51898.75	3.3340	3.3341	-0.1858	24.29	0.06	-0.050			
0.8111	51910.62	3.3330	3.3329	-0.1849	24.29	0.06	-0.050			
0.8113	51922.39	3.3320	3.3319	-0.1840	24.29	0.06	-0.050			
0.8115	51934.14	3.3310	3.3310	-0.1832	24.29	0.06	-0.050			
0.8117	51945.84	3.3300	3.3301	-0.1823	24.28	0.05	-0.050			
0.8118	51957.42	3.3290	3.3290	-0.1814	24.28	0.05	-0.050			
0.8120	51969.04	3.3280	3.3278	-0.1805	24.27	0.04	-0.050			
0.8122	51980.57	3.3270	3.3271	-0.1797	24.27	0.04	-0.050			
0.8124	51992.03	3.3260	3.3262	-0.1789	24.27	0.04	-0.050			
0.8126	52003.41	3.3250	3.3250	-0.1781	24.27	0.04	-0.050			
0.8127	52014.79	3.3240	3.3240	-0.1773	24.27	0.04	-0.050			
0.8129	52026.11	3.3230	3.3230	-0.1766	24.27	0.04	-0.050			
0.8131	52037.49	3.3220	3.3220	-0.1759	24.27	0.04	-0.050			
0.8133	52048.60	3.3210	3.3210	-0.1754	24.27	0.04	-0.050			
0.8134	52059.80	3.3200	3.3201	-0.1746	24.26	0.03	-0.050			
0.8136	52070.87	3.3190	3.3189	-0.1737	24.26	0.03	-0.050			
0.8138	52081.97	3.3180	3.3180	-0.1730	24.26	0.03	-0.050			
0.8140	52093.21	3.3170	3.3170	-0.1717	24.26	0.03	-0.050			
0.8141	52104.17	3.3160	3.3160	-0.1709	24.25	0.02	-0.050			
0.8143	52115.01	3.3150	3.3150	-0.1699	24.24	0.01	-0.050			
0.8145	52125.86	3.3140	3.3139	-0.1691	24.24	0.01	-0.050			
0.8146	52136.65	3.3130	3.3130	-0.1683	24.23	0.00	-0.050			
0.8148	52147.52	3.3120	3.3120	-0.1677	24.23	0.00	-0.050			
0.8150	52158.23	3.3110	3.3110	-0.1668	24.23	0.00	-0.050			
0.8151	52168.87	3.3100	3.3101	-0.1659	24.23	0.00	-0.050			
0.8153	52179.44	3.3090	3.3091	-0.1650	24.23	0.00	-0.050			
0.8155	52190.00	3.3080	3.3081	-0.1642	24.23	0.00	-0.050			
0.8156	52200.48	3.3070	3.3071	-0.1633	24.23	-0.00	-0.050			
0.8158	52210.90	3.3060	3.3061	-0.1623	24.22	-0.01	-0.050			
0.8160	52221.02	3.3050	3.3051	-0.1621	24.22	-0.01	-0.050			
0.8161	52231.37	3.3040	3.3039	-0.1614	24.22	-0.01	-0.050			
0.8163	52241.68	3.3030	3.3029	-0.1607	24.21	-0.02	-0.050			
0.8164	52251.94	3.3020	3.3019	-0.1600	24.21	-0.02	-0.050			
0.8166	52262.01	3.3010	3.3010	-0.1589	24.20	-0.03	-0.050			
0.8168	52272.16	3.3000	3.3001	-0.1584	24.20	-0.03	-0.050			
0.8169	52282.28	3.2990	3.2990	-0.1578	24.20	-0.03	-0.050			
0.8171	52292.36	3.2980	3.2980	-0.1573	24.19	-0.04	-0.050			
0.8172	52302.51	3.2970	3.2969	-0.1558	24.19	-0.04	-0.050			
0.8174	52312.47	3.2960	3.2959	-0.1552	24.19	-0.04	-0.050			
0.8175	52322.37	3.2950	3.2950	-0.1545	24.19	-0.04	-0.050			
0.8177	52332.24	3.2940	3.2941	-0.1538	24.19	-0.04	-0.050			
0.8178	52342.30	3.2930	3.2931	-0.1537	24.19	-0.04	-0.050			
0.8180	52352.10	3.2920	3.2921	-0.1528	24.19	-0.04	-0.050			
0.8182	52361.85	3.2910	3.2910	-0.1519	24.19	-0.04	-0.050			
0.8183	52371.55	3.2900	3.2900	-0.1511	24.18	-0.05	-0.050			
0.8185	52381.00	3.2890	3.2891	-0.1506	24.18	-0.05	-0.050			
0.8186	52390.62	3.2880	3.2881	-0.1499	24.18	-0.05	-0.050			
0.8188	52400.19	3.2870	3.2870	-0.1492	24.17	-0.06	-0.050			
0.8189	52409.72	3.2860	3.2860	-0.1485	24.17	-0.06	-0.050			
0.8190	52419.18	3.2850	3.2849	-0.1478	24.17	-0.06	-0.050			
0.8192	52428.65	3.2840	3.2840	-0.1470	24.17	-0.06	-0.050			
0.8193	52438.04	3.2830	3.2830	-0.1463	24.17	-0.06	-0.050			
0.8195	52447.11	3.2820	3.2819	-0.1450	24.17	-0.06	-0.050			
0.8196	52456.38	3.2810	3.2810	-0.1445	24.17	-0.06	-0.050			
0.8198	52465.52	3.2800	3.2800	-0.1442	24.17	-0.06	-0.050			
0.8199	52474.73	3.2790	3.2790	-0.1438	24.16	-0.07	-0.050			
0.8201	52483.92	3.2780	3.2780	-0.1434	24.16	-0.07	-0.050			
0.8202	52493.05	3.2770	3.2770	-0.1429	24.16	-0.07	-0.050			
0.8203	52502.18	3.2760	3.2761	-0.1425	24.15	-0.08	-0.050			
0.8205	52511.18	3.2750	3.2750	-0.1424	24.15	-0.08	-0.050			
0.8206	52520.29	3.2740	3.2738	-0.1421	24.15	-0.08	-0.050	0.405	0.734	
0.8208	52529.41	3.2730	3.2730	-0.1418	24.14	-0.09	-0.050			
0.8209	52538.47	3.2720	3.2720	-0.1415	24.14	-0.09	-0.050			
0.8211	52547.55	3.2710	3.2709	-0.1411	24.14	-0.09	-0.050			
0.8212	52556.57	3.2700	3.2699	-0.1407	24.13	-0.10	-0.050			
0.8213	52565.45	3.2690	3.2689	-0.1401	24.13	-0.10	-0.050			
0.8215	52574.41	3.2680	3.2679	-0.1398	24.13	-0.10	-0.050			
0.8216	52583.35	3.2670	3.2670	-0.1396	24.13	-0.10	-0.050			
0.8218	52592.34	3.2660	3.2661	-0.1390	24.13	-0.10	-0.050			
0.8219	52601.22	3.2650	3.2650	-0.1387	24.13	-0.10	-0.050			
0.8220	52610.09	3.2640	3.2640	-0.1384	24.13	-0.10	-0.050			
0.8222	52618.93	3.2630	3.2631	-0.1380	24.13	-0.10	-0.050			
0.8223	52627.85	3.2620	3.2620	-0.1375	24.13	-0.10	-0.050			
0.8224	52636.63	3.2610	3.2610	-0.1371	24.13	-0.10	-0.050			
0.8226	52645.63	3.2600	3.2600	-0.1372	24.13	-0.10	-0.050			
0.8227	52654.39	3.2590	3.2590	-0.1366	24.12	-0.11	-0.050			
0.8229	52663.12	3.2580	3.2580	-0.1361	24.12	-0.11	-0.050			
0.8230	52671.76	3.2570	3.2571	-0.1356	24.12	-0.11	-0.050			
0.8231	52680.43	3.2560	3.2559	-0.1351	24.12	-0.11	-0.050			
0.8233	52689.01	3.2550	3.2549	-0.1344	24.12	-0.11	-0.050			
0.8234	52697.59	3.2540	3.2540	-0.1339	24.12	-0.11	-0.050			
0.8235	52706.15	3.2530	3.2530	-0.1334	24.11	-0.12	-0.050			
0.8237	52714.64	3.2520	3.2519	-0.1330	24.11	-0.12	-0.050			
0.8238	52723.06	3.2510	3.2510	-0.1323	24.11	-0.12	-0.050			
0.8239	52731.51	3.2500	3.2501	-0.1319	24.11	-0.12	-0.050			
0.8241	52739.94	3.2490	3.2491	-0.1314	24.11	-0.12	-0.050			
0.8242	52748.34	3.2480	3.2480	-0.1310	24.11	-0.12	-0.050			
0.8243	52756.81	3.2470	3.2470	-0.1301	24.11	-0.12	-0.050			
0.8245	52765.21	3.2460	3.2459	-0.1298	24.11	-0.12	-0.050			
0.8246	52773.50	3.2450	3.2450	-0.1292	24.11	-0.12	-0.050			
0.8247	52781.75	3.2440	3.2440	-0.1286	24.11	-0.12	-0.050			
0.8248	52789.96	3.2430	3.2430	-0.1280	24.11	-0.12	-0.050			
0.8250	52798.10	3.2420	3.2420	-0.1276	24.11	-0.12	-0.050			
0.8251	52806.25	3.2410	3.2410	-0.1271	24.11	-0.12	-0.050			
0.8252	52814.37	3.2400	3.2401	-0.1265	24.11	-0.12	-0.050			
0.8254	52822.45	3.2390	3.2391	-0.1260	24.11	-0.12	-0.050			
0.8255	52830.49	3.2380	3.2380	-0.1254	24.11	-0.12	-0.050			
0.8256	52838.54	3.2370	3.2370	-0.1248	24.11	-0.12	-0.050			
0.8257	52846.51	3.2360	3.2360	-0.1242	24.11	-0.12	-0.050			
0.8259	52854.44	3.2350	3.2350	-0.1236	24.11	-0.12	-0.050			
0.8260	52862.34	3.2340	3.2340	-0.1231	24.10	-0.13	-0.050			
0.8261	52870.20	3.2330	3.2329	-0.1225	24.10	-0.13	-0.050			
0.8262	52877.73	3.2320	3.2320	-0.1223	24.10	-0.13	-0.050			
0.8263	52885.54	3.2310	3.2310	-0.1219	24.10	-0.13	-0.050			
0.8265	52893.33	3.2300	3.2300	-0.1216	24.10	-0.13	-0.050			
0.8266	52901.10	3.2290	3.2291	-0.1212	24.10	-0.13	-0.050			
0.8267	52908.85	3.2280	3.2281	-0.1209	24.10	-0.13	-0.050			
0.8268	52916.44	3.2270	3.2271	-0.1202	24.10	-0.13	-0.050			
0.8269	52924.13	3.2260	3.2259	-0.1199	24.10	-0.13	-0.050			
0.8271	52931.79	3.2250	3.2249	-0.1196	24.10	-0.13	-0.050			
0.8272	52939.44	3.2240	3.2239	-0.1194	24.10	-0.13	-0.050			
0.8273	52947.07	3.2230	3.2230	-0.1191	24.10	-0.13	-0.050			
0.8274	52954.72	3.2220	3.2220	-0.1189	24.10	-0.13	-0.050			
0.8275	52962.39	3.2210	3.2209	-0.1184	24.10	-0.13	-0.050			
0.8277	52969.96	3.2200	3.2199	-0.1181	24.11	-0.12	-0.050			
0.8278	52977.50	3.2190	3.2190	-0.1177	24.11	-0.12	-0.050			
0.8279	52985.03	3.2180	3.2180	-0.1174	24.11	-0.12	-0.050			
0.8280	52992.52	3.2170	3.2171	-0.1170	24.11	-0.12	-0.050			
0.8281	53000.01	3.2160	3.2160	-0.1167	24.11	-0.12	-0.050			
0.8282	53007.47	3.2150	3.2150	-0.1163	24.11	-0.12	-0.050			
0.8284	53014.90	3.2140	3.2141	-0.1160	24.11	-0.12	-0.050			
0.8285	53022.31	3.2130	3.2131	-0.1156	24.11	-0.12	-0.050			
0.8286	53029.89	3.2120	3.2119	-0.1155	24.11	-0.12	-0.050			
0.8287	53037.22	3.2110	3.2109	-0.1151	24.11	-0.12	-0.050			
0.8288	53044.57	3.2100	3.2101	-0.1147	24.11	-0.12	-0.050			
0.8289	53051.90	3.2090	3.2090	-0.1142	24.11	-0.12	-0.050			
0.8290	53059.20	3.2080	3.2080	-0.1138	24.11	-0.12	-0.050			
0.8292	53066.34	3.2070	3.2071	-0.1131	24.11	-0.12	-0.050			
0.8293	53073.57	3.2060	3.2061	-0.1128	24.10	-0.13	-0.050			
0.8294	53080.78	3.2050	3.2049	-0.1124	24.10	-0.13	-0.050			
0.8295	53087.98	3.2040	3.2039	-0.1120	24.10	-0.13	-0.050			
0.8296	53095.14	3.2030	3.2030	-0.1116	24.10	-0.13	-0.050			
0.8297	53102.27	3.2020	3.2020	-0.1112	24.10	-0.13	-0.050			
0.8298	53109.41	3.2010	3.2009	-0.1109	24.10	-0.13	-0.050			
0.8299	53116.50	3.2000	3.1999	-0.1105	24.10	-0.13	-0.050			
0.8301	53123.56	3.1990	3.1991	-0.1101	24.10	-0.13	-0.050			
0.8302	53130.57	3.1980	3.1981	-0.1098	24.09	-0.14	-0.050			
0.8303	53137.58	3.1970	3.1970	-0.1094	24.09	-0.14	-0.050			
0.8304	53144.59	3.1960	3.1960	-0.1090	24.09	-0.14	-0.050			
0.8305	53151.55	3.1950	3.1950	-0.1087	24.09	-0.14	-0.050			
0.8306	53158.49	3.1940	3.1940	-0.1083	24.09	-0.14	-0.050			
0.8307	53165.46	3.1930	3.1929	-0.1078	24.09	-0.14	-0.050			
0.8308	53172.34	3.1920	3.1920	-0.1073	24.09	-0.14	-0.050			
0.8309	53179.18	3.1910	3.1911	-0.1069	24.09	-0.14	-0.050			
0.8310	53186.01	3.1900	3.1900	-0.1065	24.09	-0.14	-0.050			
0.8311	53192.81	3.1890	3.1889	-0.1060	24.09	-0.14	-0.050			
0.8312	53199.58	3.1880	3.1879	-0.1056	24.09	-0.14	-0.050			
0.8313	53206.22	3.1870	3.1871	-0.1055	24.09	-0.14	-0.050			
0.8315	53212.96	3.1860	3.1860	-0.1052	24.09	-0.14	-0.050			
0.8316	53219.69	3.1850	3.1850	-0.1049	24.09	-0.14	-0.050			
0.8317	53226.35	3.1840	3.1841	-0.1045	24.09	-0.14	-0.050			
0.8318	53233.02	3.1830	3.1831	-0.1042	24.10	-0.13	-0.050			
0.8319	53239.68	3.1820	3.1820	-0.1039	24.10	-0.13	-0.050			
0.8320	53246.35	3.1810	3.1810	-0.1035	24.10	-0.13	-0.050			
0.8321	53252.96	3.1800	3.1799	-0.1031	24.10	-0.13	-0.050			
0.8322	53259.55	3.1790	3.1791	-0.1028	24.10	-0.13	-0.050			
0.8323	53266.09	3.1780	3.1780	-0.1024	24.10	-0.13	-0.050			
0.8324	53272.63	3.1770	3.1769	-0.1021	24.11	-0.12	-0.050			
0.8325	53279.16	3.1760	3.1758	-0.1018	24.11	-0.12	-0.050			
0.8326	53285.66	3.1750	3.1749	-0.1015	24.11	-0.12	-0.050			
0.8327	53292.23	3.1740	3.1740	-0.1009	24.11	-0.12	-0.050			
0.8328	53298.71	3.1730	3.1731	-0.1006	24.11	-0.12	-0.050			
0.8329	53305.14	3.1720	3.1719	-0.1002	24.12	-0.11	-0.050			
0.8330	53311.54	3.1710	3.1711	-0.0998	24.12	-0.11	-0.050			
0.8331	53317.92	3.1700	3.1701	-0.0994	24.12	-0.11	-0.050			
0.8332	53324.27	3.1690	3.1690	-0.0990	24.12	-0.11	-0.050			
0.8333	53330.56	3.1680	3.1680	-0.0988	24.12	-0.11	-0.050			
0.8334	53336.96	3.1670	3.1669	-0.0986	24.12	-0.11	-0.050			
0.8335	53343.26	3.1660	3.1660	-0.0982	24.13	-0.10	-0.050			
0.8336	53349.53	3.1650	3.1650	-0.0978	24.13	-0.10	-0.050			
0.8337	53355.78	3.1640	3.1640	-0.0974	24.13	-0.10	-0.050			
0.8338	53362.00	3.1630	3.1630	-0.0969	24.13	-0.10	-0.050			
0.8339	53368.09	3.1620	3.1621	-0.0968	24.13	-0.10	-0.050			
0.8340	53374.16	3.1610	3.1610	-0.0961	24.13	-0.10	-0.050			
0.8341	53380.30	3.1600	3.1600	-0.0958	24.14	-0.09	-0.050			
0.8342	53386.42	3.1590	3.1590	-0.0955	24.14	-0.09	-0.050			
0.8343	53392.52	3.1580	3.1580	-0.0952	24.14	-0.09	-0.050			
0.8344	53398.61	3.1570	3.1570	-0.0949	24.14	-0.09	-0.050			
0.8344	53404.68	3.1560	3.1560	-0.0946	24.14	-0.09	-0.050			
0.8345	53410.68	3.1550	3.1550	-0.0945	24.15	-0.08	-0.050			
0.8346	53416.65	3.1540	3.1541	-0.0941	24.15	-0.08	-0.050			
0.8347	53422.67	3.1530	3.1531	-0.0938	24.15	-0.08	-0.050			
0.8348	53428.66	3.1520	3.1520	-0.0936	24.15	-0.08	-0.050			
0.8349	53434.65	3.1510	3.1510	-0.0934	24.16	-0.07	-0.050			
0.8350	53440.62	3.1500	3.1500	-0.0932	24.16	-0.07	-0.050			
0.8351	53446.58	3.1490	3.1490	-0.0930	24.16	-0.07	-0.050			
0.8352	53452.57	3.1480	3.1480	-0.0928	24.16	-0.07	-0.050			
0.8353	53458.55	3.1470	3.1469	-0.0925	24.16	-0.07	-0.050			
0.8354	53464.46	3.1460	3.1460	-0.0922	24.17	-0.06	-0.050			
0.8355	53470.35	3.1450	3.1451	-0.0919	24.17	-0.06	-0.050			
0.8356	53476.22	3.1440	3.1440	-0.0916	24.17	-0.06	-0.050			
0.8357	53482.08	3.1430	3.1429	-0.0914	24.17	-0.06	-0.050			
0.8357	53487.91	3.1420	3.1419	-0.0911	24.18	-0.05	-0.050			
0.8358	53493.70	3.1410	3.1410	-0.0909	24.18	-0.05	-0.050			
0.8359	53499.51	3.1400	3.1400	-0.0906	24.18	-0.05	-0.050			
0.8360	53505.30	3.1390	3.1390	-0.0904	24.18	-0.05	-0.050			
0.8361	53511.07	3.1380	3.1380	-0.0901	24.18	-0.05	-0.050			
0.8362	53516.83	3.1370	3.1370	-0.0899	24.19	-0.04	-0.050			
0.8363	53522.57	3.1360	3.1361	-0.0896	24.19	-0.04	-0.050			
0.8364	53528.34	3.1350	3.1351	-0.0894	24.19	-0.04	-0.050			
0.8365	53534.05	3.1340	3.1340	-0.0891	24.19	-0.04	-0.050			
0.8366	53539.74	3.1330	3.1329	-0.0888	24.20	-0.03	-0.050			
0.8366	53545.42	3.1320	3.1319	-0.0885	24.20	-0.03	-0.050			
0.8367	53551.07	3.1310	3.1310	-0.0883	24.20	-0.03	-0.050			
0.8368	53556.71	3.1300	3.1300	-0.0880	24.20	-0.03	-0.050			
0.8369	53562.34	3.1290	3.1290	-0.0877	24.20	-0.03	-0.050			
0.8370	53567.94	3.1280	3.1280	-0.0874	24.21	-0.02	-0.050			
0.8371	53573.51	3.1270	3.1271	-0.0871	24.21	-0.02	-0.050			
0.8372	53579.07	3.1260	3.1262	-0.0868	24.21	-0.02	-0.050			
0.8373	53584.62	3.1250	3.1250	-0.0866	24.21	-0.02	-0.050			
0.8373	53590.15	3.1240	3.1239	-0.0863	24.21	-0.02	-0.050			
0.8374	53595.66	3.1230	3.1229	-0.0860	24.22	-0.01	-0.050			
0.8375	53601.16	3.1220	3.1220	-0.0858	24.22	-0.01	-0.050			
0.8376	53606.72	3.1210	3.1210	-0.0855	24.22	-0.01	-0.050			
0.8377	53612.01	3.1200	3.1200	-0.0855	24.22	-0.01	-0.050			
0.8378	53617.48	3.1190	3.1189	-0.0853	24.22	-0.01	-0.050			
0.8379	53622.93	3.1180	3.1179	-0.0851	24.23	-0.00	-0.050			
0.8379	53628.37	3.1170	3.1171	-0.0849	24.23	-0.00	-0.050			
0.8380	53633.80	3.1160	3.1162	-0.0847	24.23	0.00	-0.050			
0.8381	53639.07	3.1150	3.1151	-0.0843	24.23	0.00	-0.050			
0.8382	53644.64	3.1140	3.1140	-0.0840	24.23	0.00	-0.050			
0.8383	53650.01	3.1130	3.1130	-0.0838	24.24	0.01	-0.050			
0.8384	53655.37	3.1120	3.1120	-0.0836	24.24	0.01	-0.050			
0.8384	53660.71	3.1110	3.1110	-0.0834	24.24	0.01	-0.050			
0.8385	53666.04	3.1100	3.1099	-0.0832	24.24	0.01	-0.050			
0.8386	53671.35	3.1090	3.1089	-0.0830	24.24	0.01	-0.050			
0.8387	53676.66	3.1080	3.1080	-0.0827	24.25	0.02	-0.050			
0.8388	53682.01	3.1070	3.1070	-0.0826	24.25	0.02	-0.050			
0.8389	53687.29	3.1060	3.1062	-0.0824	24.25	0.02	-0.050			
0.8389	53692.60	3.1050	3.1050	-0.0820	24.25	0.02	-0.050			
0.8390	53697.84	3.1040	3.1040	-0.0817	24.25	0.02	-0.050			
0.8391	53703.06	3.1030	3.1030	-0.0815	24.26	0.03	-0.050			
0.8392	53708.26	3.1020	3.1020	-0.0812	24.26	0.03	-0.050			
0.8393	53713.45	3.1010	3.1010	-0.0809	24.26	0.03	-0.050			
0.8394	53718.78	3.1000	3.1000	-0.0808	24.26	0.03	-0.050			
0.8394	53723.94	3.0990	3.0990	-0.0804	24.26	0.03	-0.050			
0.8395	53729.08	3.0980	3.0980	-0.0801	24.27	0.04	-0.050			
0.8396	53734.12	3.0970	3.0969	-0.0799	24.27	0.04	-0.050			
0.8397	53739.22	3.0960	3.0961	-0.0796	24.27	0.04	-0.050			
0.8398	53744.31	3.0950	3.0950	-0.0793	24.27	0.04	-0.050			
0.8398	53749.22	3.0940	3.0940	-0.0788	24.27	0.04	-0.050			
0.8399	53754.36	3.0930	3.0930	-0.0785	24.28	0.05	-0.050			
0.8400	53759.37	3.0920	3.0919	-0.0782	24.28	0.05	-0.050			
0.8401	53764.37	3.0910	3.0909	-0.0780	24.28	0.05	-0.050			
0.8401	53769.35	3.0900	3.0900	-0.0777	24.28	0.05	-0.050			
0.8402	53774.31	3.0890	3.0890	-0.0774	24.28	0.05	-0.050			
0.8403	53779.26	3.0880	3.0880	-0.0771	24.29	0.06	-0.050			
0.8404	53784.19	3.0870	3.0869	-0.0769	24.29	0.06	-0.050			
0.8405	53789.10	3.0860	3.0860	-0.0766	24.29	0.06	-0.050			
0.8405	53794.03	3.0850	3.0851	-0.0764	24.29	0.06	-0.050			
0.8406	53798.91	3.0840	3.0840	-0.0761	24.29	0.06	-0.050			
0.8407	53803.77	3.0830	3.0832	-0.0758	24.29	0.06	-0.050	0.435	0.874	
0.8408	53808.62	3.0820	3.0821	-0.0755	24.29	0.06	-0.050			
0.8408	53813.37	3.0810	3.0810	-0.0755	24.29	0.06	-0.050			
0.8409	53818.19	3.0800	3.0800	-0.0752	24.29	0.06	-0.050			
0.8410	53822.99	3.0790	3.0790	-0.0750	24.30	0.07	-0.050			
0.8411	53827.78	3.0780	3.0779	-0.0747	24.30	0.07	-0.050			
0.8411	53832.46	3.0770	3.0769	-0.0744	24.30	0.07	-0.050			
0.8412	53837.22	3.0760	3.0759	-0.0742	24.30	0.07	-0.050			
0.8413	53841.96	3.0750	3.0749	-0.0740	24.30	0.07	-0.050			
0.8414	53846.69	3.0740	3.0740	-0.0738	24.30	0.07	-0.050			
0.8414	53851.40	3.0730	3.0730	-0.0734	24.30	0.07	-0.050			
0.8415	53856.09	3.0720	3.0719	-0.0732	24.30	0.07	-0.050			
0.8416	53860.77	3.0710	3.0710	-0.0730	24.30	0.07	-0.050			
0.8416	53865.43	3.0700	3.0700	-0.0728	24.30	0.07	-0.050			
0.8417	53870.09	3.0690	3.0690	-0.0726	24.30	0.07	-0.050			
0.8418	53874.73	3.0680	3.0680	-0.0725	24.31	0.08	-0.050			
0.8419	53879.36	3.0670	3.0670	-0.0723	24.31	0.08	-0.050			
0.8419	53883.98	3.0660	3.0660	-0.0721	24.31	0.08	-0.050			
0.8420	53888.64	3.0650	3.0650	-0.0717	24.31	0.08	-0.050			
0.8421	53893.22	3.0640	3.0640	-0.0715	24.31	0.08	-0.050			
0.8422	53897.79	3.0630	3.0631	-0.0713	24.31	0.08	-0.050			
0.8422	53902.34	3.0620	3.0621	-0.0710	24.31	0.08	-0.050			
0.8423	53907.01	3.0610	3.0610	-0.0710	24.31	0.08	-0.050			
0.8424	53911.54	3.0600	3.0600	-0.0707	24.31	0.08	-0.050			
0.8424	53916.06	3.0590	3.0590	-0.0704	24.31	0.08	-0.050			
0.8425	53920.47	3.0580	3.0580	-0.0703	24.31	0.08	-0.050			
0.8426	53924.96	3.0570	3.0571	-0.0701	24.31	0.08	-0.050			
0.8426	53929.44	3.0560	3.0561	-0.0698	24.32	0.09	-0.050			
0.8427	53933.90	3.0550	3.0550	-0.0696	24.32	0.09	-0.050			
0.8428	53938.35	3.0540	3.0540	-0.0694	24.32	0.09	-0.050			
0.8429	53942.70	3.0530	3.0530	-0.0690	24.32	0.09	-0.050			
0.8429	53947.11	3.0520	3.0520	-0.0688	24.32	0.09	-0.050			
0.8430	53951.51	3.0510	3.0509	-0.0686	24.32	0.09	-0.050			
0.8431	53955.90	3.0500	3.0501	-0.0684	24.32	0.09	-0.050			
0.8431	53960.26	3.0490	3.0490	-0.0683	24.32	0.09	-0.050			
0.8432	53964.63	3.0480	3.0480	-0.0681	24.32	0.09	-0.050			
0.8433	53968.98	3.0470	3.0469	-0.0679	24.32	0.09	-0.050			
0.8433	53973.32	3.0460	3.0460	-0.0677	24.32	0.09	-0.050			
0.8434	53977.60	3.0450	3.0450	-0.0675	24.32	0.09	-0.050			
0.8435	53981.92	3.0440	3.0440	-0.0673	24.31	0.08	-0.050			
0.8435	53986.22	3.0430	3.0430	-0.0672	24.31	0.08	-0.050			
0.8436	53990.51	3.0420	3.0420	-0.0670	24.31	0.08	-0.050			
0.8437	53994.82	3.0410	3.0409	-0.0668	24.31	0.08	-0.050			
0.8437	53999.09	3.0400	3.0400	-0.0666	24.31	0.08	-0.050			
0.8438	54003.35	3.0390	3.0390	-0.0664	24.31	0.08	-0.050			
0.8439	54007.63	3.0380	3.0381	-0.0663	24.31	0.08	-0.050			
0.8439	54011.86	3.0370	3.0370	-0.0661	24.31	0.08	-0.050			
0.8440	54016.09	3.0360	3.0360	-0.0659	24.31	0.08	-0.050			
0.8441	54020.30	3.0350	3.0350	-0.0657	24.31	0.08	-0.050			
0.8441	54024.50	3.0340	3.0340	-0.0655	24.31	0.08	-0.050			
0.8442	54028.74	3.0330	3.0330	-0.0652	24.31	0.08	-0.050			
0.8443	54032.90	3.0320	3.0320	-0.0650	24.32	0.09	-0.050			
0.8443	54037.05	3.0310	3.0310	-0.0647	24.32	0.09	-0.050			
0.8444	54041.19	3.0300	3.0300	-0.0645	24.32	0.09	-0.050			
0.8445	54045.36	3.0290	3.0290	-0.0644	24.32	0.09	-0.050			
0.8445	54049.47	3.0280	3.0280	-0.0641	24.32	0.09	-0.050			
0.8446	54053.57	3.0270	3.0270	-0.0639	24.32	0.09	-0.050			
0.8447	54057.65	3.0260	3.0261	-0.0637	24.32	0.09	-0.050			
0.8447	54061.72	3.0250	3.0251	-0.0634	24.32	0.09	-0.050			
0.8448	54065.79	3.0240	3.0241	-0.0631	24.32	0.09	-0.050			
0.8448	54069.82	3.0230	3.0230	-0.0629	24.33	0.10	-0.050			
0.8449	54073.83	3.0220	3.0219	-0.0626	24.33	0.10	-0.050			
0.8450	54077.86	3.0210	3.0209	-0.0624	24.33	0.10	-0.050			
0.8450	54081.85	3.0200	3.0200	-0.0622	24.33	0.10	-0.050			
0.8451	54085.82	3.0190	3.0189	-0.0619	24.34	0.11	-0.050			
0.8452	54089.77	3.0180	3.0179	-0.0616	24.34	0.11	-0.050			
0.8452	54093.70	3.0170	3.0169	-0.0613	24.34	0.11	-0.050			
0.8453	54097.62	3.0160	3.0160	-0.0611	24.34	0.11	-0.050			
0.8453	54101.52	3.0150	3.0150	-0.0608	24.34	0.11	-0.050			
0.8454	54105.40	3.0140	3.0140	-0.0605	24.35	0.12	-0.050			
0.8455	54109.25	3.0130	3.0131	-0.0603	24.35	0.12	-0.050			
0.8455	54113.10	3.0120	3.0122	-0.0600	24.35	0.12	-0.050			
0.8456	54116.93	3.0110	3.0111	-0.0597	24.35	0.12	-0.050			
0.8456	54120.75	3.0100	3.0100	-0.0595	24.35	0.12	-0.050			
0.8457	54124.54	3.0090	3.0090	-0.0592	24.36	0.13	-0.050			
0.8458	54128.33	3.0080	3.0080	-0.0590	24.36	0.13	-0.050			
0.8458	54132.09	3.0070	3.0070	-0.0587	24.36	0.13	-0.050			
0.8459	54135.84	3.0060	3.0060	-0.0584	24.36	0.13	-0.050			
0.8459	54139.57	3.0050	3.0050	-0.0582	24.37	0.14	-0.050			
