Relative time (s)	Voltage (V)	Temperature (°C)	
9.878	3.4859	6.77	
69.878	3.5119	6.79	
129.878	3.5190	6.79	
189.878	3.5231	6.77	
249.878	3.5266	6.73	
309.878	3.5299	6.69	
369.878	3.5327	6.65	
429.878	3.5352	6.61	
489.878	3.5375	6.55	
549.878	3.5396	6.51	
609.878	3.5414	6.45	
669.878	3.5430	6.41	
729.878	3.5442	6.35	
789.878	3.5454	6.31	
849.878	3.5465	6.26	
909.878	3.5475	6.21	
969.878	3.5485	6.15	
1029.878	3.5493	6.11	
1089.878	3.5500	6.07	
1149.878	3.5507	6.03	
1189.878	3.5512	5.99	
