Relative time (s)	Voltage (V)	Temperature (°C)	
50.644	3.5076	6.79	
110.644	3.5171	6.81	
170.644	3.5216	6.77	
230.644	3.5253	6.75	
290.644	3.5285	6.70	
350.644	3.5312	6.65	
410.644	3.5340	6.60	
470.644	3.5364	6.55	
530.644	3.5385	6.51	
590.644	3.5405	6.47	
650.644	3.5422	6.41	
710.644	3.5436	6.38	
770.644	3.5447	6.33	
830.644	3.5459	6.29	
890.644	3.5469	6.25	
950.644	3.5478	6.20	
1010.644	3.5487	6.15	
1070.644	3.5496	6.11	
1130.644	3.5503	6.07	
1190.644	3.5508	6.03	
1241.644	3.5514	5.99	
