Relative time (s)	Voltage (V)	Temperature (°C)	
39.973	3.5022	6.93	
99.973	3.5146	6.93	
159.973	3.5193	6.91	
219.973	3.5224	6.87	
279.973	3.5251	6.83	
339.973	3.5278	6.79	
399.973	3.5300	6.73	
459.973	3.5321	6.67	
519.973	3.5342	6.62	
579.973	3.5360	6.57	
639.973	3.5377	6.51	
699.973	3.5390	6.45	
759.973	3.5404	6.39	
819.973	3.5416	6.35	
879.973	3.5427	6.29	
939.973	3.5437	6.23	
999.973	3.5448	6.18	
1059.973	3.5455	6.13	
1119.973	3.5462	6.08	
1179.973	3.5470	6.02	
1206.973	3.5473	5.99	
