Relative time (s)	Voltage (V)	Temperature (°C)	
20.865	3.4958	6.75	
80.865	3.5146	6.77	
140.865	3.5207	6.75	
200.865	3.5246	6.73	
260.865	3.5276	6.69	
320.865	3.5305	6.65	
380.865	3.5330	6.61	
440.865	3.5356	6.55	
500.865	3.5376	6.51	
560.865	3.5395	6.45	
620.865	3.5414	6.39	
680.865	3.5429	6.35	
740.865	3.5442	6.29	
800.865	3.5455	6.23	
860.865	3.5468	6.17	
920.865	3.5477	6.11	
980.865	3.5487	6.07	
1040.865	3.5495	6.01	
1044.865	3.5495	5.99	
