Relative time (s)	Voltage (V)	Temperature (°C)	
9.816	3.4826	6.75	
69.816	3.5108	6.75	
129.816	3.5180	6.75	
189.816	3.5217	6.71	
249.816	3.5246	6.67	
309.816	3.5272	6.63	
369.816	3.5295	6.59	
429.816	3.5318	6.53	
489.816	3.5339	6.49	
549.816	3.5356	6.45	
609.816	3.5374	6.39	
669.816	3.5391	6.35	
729.816	3.5404	6.31	
789.816	3.5417	6.27	
849.816	3.5430	6.22	
909.816	3.5440	6.17	
969.816	3.5450	6.13	
1029.816	3.5459	6.09	
1089.816	3.5466	6.05	
1149.816	3.5475	6.01	
1173.816	3.5478	5.99	
